SpectraSuite Datei
++++++++++++++++++++++++++++++++++++
Datum: Thu Sep 19 13:00:53 CEST 2024
Benutzer: Student
Dark-Spektrum vorhanden: Nein
Referenz-Spektrum vorhanden: Nein
Zahl der probierten Teilspektren: 1
Spektrometer: USB2+H15728
Integrationszeit (usec): 100000 (USB2+H15728)
Spektren Durchschnitt berechnet: 500 (USB2+H15728)
Boxcar Glättung: 0 (USB2+H15728)
Dunkelstromkorrektur: Nein (USB2+H15728)
Puls/Lampe aktiviert: Nein (USB2+H15728)
Correct for Detector Non-linearity: Nein (USB2+H15728)
Streulichtkorrektur: Nein (USB2+H15728)
Anzahl Pixel in verarbeitetem Spektrum: 2048
>>>>>Begin Processed Spectral Data<<<<<
0,00	860,17
1,00	860,17
2,00	860,17
3,00	828,88
4,00	843,67
5,00	842,43
6,00	844,25
7,00	852,06
8,00	874,11
9,00	876,69
10,00	891,51
11,00	909,42
12,00	914,53
13,00	958,01
14,00	945,81
15,00	969,00
16,00	980,85
17,00	1007,61
18,00	1017,19
19,00	1050,29
20,00	1043,66
21,00	1062,21
22,00	1078,72
23,00	1102,63
24,00	1103,41
25,00	1116,81
26,00	1134,40
27,00	1153,16
28,00	1151,76
29,00	1159,12
30,00	1172,30
31,00	1173,63
32,00	1201,83
33,00	1187,92
34,00	1191,64
35,00	1198,17
36,00	1200,09
37,00	1194,77
38,00	1198,62
39,00	1220,73
40,00	1198,05
41,00	1215,55
42,00	1203,62
43,00	1207,77
44,00	1201,10
45,00	1199,72
46,00	1193,30
47,00	1202,72
48,00	1194,23
49,00	1211,19
50,00	1194,13
51,00	1195,82
52,00	1188,88
53,00	1206,27
54,00	1190,45
55,00	1181,71
56,00	1196,50
57,00	1179,36
58,00	1181,37
59,00	1180,10
60,00	1168,89
61,00	1177,12
62,00	1172,22
63,00	1170,31
64,00	1171,56
65,00	1167,04
66,00	1166,99
67,00	1169,23
68,00	1169,32
69,00	1166,21
70,00	1225,23
71,00	1171,12
72,00	1166,45
73,00	1166,02
74,00	1167,69
75,00	1166,25
76,00	1166,43
77,00	1169,80
78,00	1167,08
79,00	1169,21
80,00	1172,39
81,00	1163,76
82,00	1175,00
83,00	1162,11
84,00	1190,46
85,00	1175,19
86,00	1198,73
87,00	1189,32
88,00	1167,29
89,00	1164,32
90,00	1171,21
91,00	1184,60
92,00	1176,77
93,00	1183,03
94,00	1172,54
95,00	1167,89
96,00	1171,80
97,00	1223,72
98,00	1171,98
99,00	1171,59
100,00	1173,28
101,00	1185,93
102,00	1172,90
103,00	1176,05
104,00	1174,64
105,00	1185,40
106,00	1180,21
107,00	1178,53
108,00	1183,55
109,00	1179,53
110,00	1199,04
111,00	1187,34
112,00	1177,76
113,00	1186,50
114,00	1176,95
115,00	1176,11
116,00	1177,76
117,00	1174,84
118,00	1178,33
119,00	1198,95
120,00	1176,64
121,00	1176,03
122,00	1181,24
123,00	1171,37
124,00	1175,89
125,00	1176,11
126,00	1181,03
127,00	1184,10
128,00	1179,16
129,00	1185,55
130,00	1180,47
131,00	1187,48
132,00	1177,77
133,00	1190,11
134,00	1183,08
135,00	1176,44
136,00	1177,58
137,00	1187,13
138,00	1196,59
139,00	1184,56
140,00	1184,43
141,00	1192,49
142,00	1184,20
143,00	1176,51
144,00	1181,79
145,00	1181,64
146,00	1184,58
147,00	1196,56
148,00	1238,10
149,00	1193,66
150,00	1177,92
151,00	1186,46
152,00	1178,63
153,00	1180,20
154,00	1183,79
155,00	1177,29
156,00	1190,93
157,00	1183,67
158,00	1187,59
159,00	1195,11
160,00	1193,04
161,00	1195,99
162,00	1178,18
163,00	1182,06
164,00	1177,30
165,00	1178,38
166,00	1182,86
167,00	1185,72
168,00	1180,82
169,00	1180,60
170,00	1182,34
171,00	1176,74
172,00	1193,75
173,00	1178,75
174,00	1181,60
175,00	1184,23
176,00	1182,68
177,00	1183,95
178,00	1190,54
179,00	1183,41
180,00	1191,97
181,00	1180,80
182,00	1181,96
183,00	1209,13
184,00	1181,44
185,00	1179,48
186,00	1179,19
187,00	1185,80
188,00	1195,24
189,00	1186,27
190,00	1177,77
191,00	1183,22
192,00	1191,36
193,00	1181,08
194,00	1184,77
195,00	1192,19
196,00	1195,67
197,00	1188,36
198,00	1206,36
199,00	1180,58
200,00	1179,30
201,00	1190,47
202,00	1188,81
203,00	1187,51
204,00	1185,67
205,00	1192,65
206,00	1186,77
207,00	1186,63
208,00	1189,01
209,00	1189,74
210,00	1191,62
211,00	1193,02
212,00	1178,84
213,00	1191,68
214,00	1192,34
215,00	1189,96
216,00	1188,46
217,00	1190,06
218,00	1201,17
219,00	1186,35
220,00	1206,08
221,00	1191,99
222,00	1195,73
223,00	1190,36
224,00	1188,02
225,00	1182,84
226,00	1192,76
227,00	1186,55
228,00	1185,61
229,00	1187,00
230,00	1189,19
231,00	1192,27
232,00	1193,24
233,00	1191,67
234,00	1192,42
235,00	1192,67
236,00	1208,29
237,00	1188,50
238,00	1185,88
239,00	1183,97
240,00	1194,68
241,00	1198,00
242,00	1187,04
243,00	1200,18
244,00	1189,88
245,00	1181,48
246,00	1181,44
247,00	1190,44
248,00	1195,45
249,00	1199,97
250,00	1200,72
251,00	1191,66
252,00	1198,82
253,00	1192,67
254,00	1196,53
255,00	1185,18
256,00	1192,87
257,00	1192,38
258,00	1189,32
259,00	1191,01
260,00	1181,92
261,00	1188,86
262,00	1181,64
263,00	1189,90
264,00	1192,55
265,00	1192,53
266,00	1188,28
267,00	1186,89
268,00	1196,31
269,00	1191,98
270,00	1192,60
271,00	1200,75
272,00	1196,15
273,00	1191,59
274,00	1191,17
275,00	1191,99
276,00	1187,32
277,00	1193,06
278,00	1191,89
279,00	1196,09
280,00	1186,82
281,00	1190,11
282,00	1186,82
283,00	1192,98
284,00	1192,06
285,00	1194,97
286,00	1195,20
287,00	1189,93
288,00	1188,65
289,00	1190,79
290,00	1202,42
291,00	1188,71
292,00	1199,21
293,00	1191,47
294,00	1194,86
295,00	1196,34
296,00	1184,55
297,00	1187,15
298,00	1194,77
299,00	1190,98
300,00	1193,51
301,00	1196,38
302,00	1190,05
303,00	1200,10
304,00	1190,95
305,00	1199,30
306,00	1190,71
307,00	1190,29
308,00	1196,66
309,00	1194,91
310,00	1192,64
311,00	1190,84
312,00	1193,80
313,00	1202,72
314,00	1198,23
315,00	1191,82
316,00	1196,07
317,00	1187,81
318,00	1188,95
319,00	1195,06
320,00	1190,45
321,00	1189,43
322,00	1187,85
323,00	1202,35
324,00	1190,70
325,00	1200,86
326,00	1186,08
327,00	1192,43
328,00	1197,99
329,00	1201,88
330,00	1193,72
331,00	1194,69
332,00	1189,10
333,00	1198,39
334,00	1194,87
335,00	1197,02
336,00	1196,24
337,00	1191,37
338,00	1201,08
339,00	1190,13
340,00	1187,82
341,00	1189,73
342,00	1189,10
343,00	1203,62
344,00	1214,35
345,00	1191,17
346,00	1185,94
347,00	1199,90
348,00	1186,37
349,00	1209,54
350,00	1194,75
351,00	1186,26
352,00	1213,16
353,00	1202,51
354,00	1187,96
355,00	1192,93
356,00	1194,01
357,00	1201,68
358,00	1189,01
359,00	1189,85
360,00	1195,98
361,00	1196,46
362,00	1202,05
363,00	1196,49
364,00	1204,64
365,00	1195,27
366,00	1196,10
367,00	1188,40
368,00	1192,65
369,00	1191,98
370,00	1188,15
371,00	1188,83
372,00	1207,95
373,00	1192,54
374,00	1193,32
375,00	1192,75
376,00	1190,07
377,00	1260,21
378,00	1196,51
379,00	1194,13
380,00	1189,12
381,00	1212,73
382,00	1200,40
383,00	1194,73
384,00	1190,57
385,00	1188,79
386,00	1192,18
387,00	1195,71
388,00	1195,93
389,00	1207,11
390,00	1200,72
391,00	1195,46
392,00	1191,70
393,00	1197,72
394,00	1195,38
395,00	1191,37
396,00	1202,24
397,00	1192,69
398,00	1200,86
399,00	1193,79
400,00	1199,72
401,00	1194,45
402,00	1196,24
403,00	1194,02
404,00	1197,22
405,00	1199,28
406,00	1193,46
407,00	1203,94
408,00	1193,99
409,00	1205,43
410,00	1196,82
411,00	1193,97
412,00	1190,75
413,00	1188,94
414,00	1213,33
415,00	1201,62
416,00	1207,22
417,00	1197,12
418,00	1190,15
419,00	1193,55
420,00	1204,56
421,00	1196,53
422,00	1202,27
423,00	1191,06
424,00	1189,04
425,00	1192,18
426,00	1191,36
427,00	1193,69
428,00	1190,99
429,00	1193,71
430,00	1189,33
431,00	1193,16
432,00	1195,29
433,00	1193,35
434,00	1206,65
435,00	1199,35
436,00	1208,06
437,00	1198,38
438,00	1196,07
439,00	1191,99
440,00	1198,70
441,00	1195,70
442,00	1201,87
443,00	1192,30
444,00	1192,33
445,00	1193,69
446,00	1200,96
447,00	1192,62
448,00	1209,36
449,00	1194,31
450,00	1190,29
451,00	1211,13
452,00	1206,44
453,00	1195,07
454,00	1204,44
455,00	1192,53
456,00	1197,10
457,00	1229,88
458,00	1195,51
459,00	1192,03
460,00	1188,88
461,00	1192,93
462,00	1192,30
463,00	1193,25
464,00	1196,84
465,00	1191,25
466,00	1198,76
467,00	1196,98
468,00	1193,68
469,00	1202,56
470,00	1207,03
471,00	1199,60
472,00	1206,98
473,00	1189,83
474,00	1191,13
475,00	1199,20
476,00	1192,16
477,00	1193,79
478,00	1202,29
479,00	1199,53
480,00	1196,85
481,00	1188,47
482,00	1196,85
483,00	1208,13
484,00	1195,53
485,00	1209,02
486,00	1191,62
487,00	1196,06
488,00	1199,04
489,00	1193,42
490,00	1203,12
491,00	1199,02
492,00	1196,38
493,00	1192,19
494,00	1199,38
495,00	1211,83
496,00	1201,38
497,00	1194,42
498,00	1194,13
499,00	1188,96
500,00	1191,78
501,00	1192,88
502,00	1198,73
503,00	1200,23
504,00	1197,60
505,00	1201,51
506,00	1204,23
507,00	1207,34
508,00	1207,69
509,00	1192,58
510,00	1194,15
511,00	1201,84
512,00	1194,16
513,00	1203,75
514,00	1226,65
515,00	1196,35
516,00	1197,51
517,00	1194,83
518,00	1196,33
519,00	1207,80
520,00	1210,36
521,00	1190,14
522,00	1202,40
523,00	1218,72
524,00	1202,35
525,00	1192,34
526,00	1193,97
527,00	1196,32
528,00	1198,60
529,00	1199,31
530,00	1197,42
531,00	1196,31
532,00	1190,78
533,00	1204,76
534,00	1193,02
535,00	1200,91
536,00	1204,44
537,00	1198,49
538,00	1206,01
539,00	1197,17
540,00	1191,83
541,00	1204,57
542,00	1194,18
543,00	1199,66
544,00	1204,66
545,00	1193,18
546,00	1191,65
547,00	1205,13
548,00	1198,84
549,00	1192,74
550,00	1194,76
551,00	1200,68
552,00	1223,67
553,00	1206,27
554,00	1201,93
555,00	1206,38
556,00	1195,92
557,00	1200,09
558,00	1192,59
559,00	1195,37
560,00	1208,04
561,00	1209,42
562,00	1204,41
563,00	1197,05
564,00	1197,23
565,00	1202,59
566,00	1198,20
567,00	1203,55
568,00	1201,72
569,00	1198,06
570,00	1200,35
571,00	1197,84
572,00	1193,14
573,00	1197,71
574,00	1194,78
575,00	1202,53
576,00	1206,49
577,00	1200,35
578,00	1191,76
579,00	1192,69
580,00	1198,65
581,00	1198,69
582,00	1198,73
583,00	1192,14
584,00	1192,56
585,00	1206,73
586,00	1193,45
587,00	1195,75
588,00	1193,06
589,00	1194,82
590,00	1207,10
591,00	1192,29
592,00	1201,27
593,00	1198,34
594,00	1194,27
595,00	1199,08
596,00	1201,65
597,00	1200,14
598,00	1189,08
599,00	1197,17
600,00	1196,61
601,00	1560,98
602,00	1226,06
603,00	1200,67
604,00	1196,59
605,00	1197,73
606,00	1199,71
607,00	1195,63
608,00	1197,89
609,00	1199,04
610,00	1196,41
611,00	1189,90
612,00	1201,93
613,00	1196,52
614,00	1204,77
615,00	1197,77
616,00	1200,60
617,00	1205,74
618,00	1200,62
619,00	1192,58
620,00	1197,29
621,00	1199,26
622,00	1193,64
623,00	1197,90
624,00	1190,23
625,00	1216,43
626,00	1193,59
627,00	1204,56
628,00	1199,59
629,00	1204,23
630,00	1194,82
631,00	1193,09
632,00	1204,07
633,00	1193,13
634,00	1197,37
635,00	1207,74
636,00	1199,73
637,00	1196,47
638,00	1194,31
639,00	1197,37
640,00	1200,85
641,00	1198,20
642,00	1201,18
643,00	1197,28
644,00	1195,83
645,00	1198,28
646,00	1191,85
647,00	1194,49
648,00	1193,37
649,00	1198,49
650,00	1199,38
651,00	1195,07
652,00	1201,43
653,00	1196,73
654,00	1194,25
655,00	1193,60
656,00	1203,74
657,00	1196,97
658,00	1203,68
659,00	1203,62
660,00	1240,18
661,00	1207,30
662,00	1200,31
663,00	1201,61
664,00	1203,28
665,00	1196,06
666,00	1210,87
667,00	1195,35
668,00	1193,18
669,00	1204,59
670,00	1202,79
671,00	1201,22
672,00	1195,08
673,00	1207,85
674,00	1201,18
675,00	1195,63
676,00	1209,08
677,00	1197,56
678,00	1194,85
679,00	1198,03
680,00	1197,39
681,00	1196,51
682,00	1199,95
683,00	1197,50
684,00	1196,55
685,00	1199,97
686,00	1199,42
687,00	1201,78
688,00	1193,20
689,00	1214,03
690,00	1213,83
691,00	1201,23
692,00	1204,66
693,00	1202,26
694,00	1199,28
695,00	1207,22
696,00	1201,55
697,00	1197,35
698,00	1204,09
699,00	1236,43
700,00	1199,42
701,00	1211,79
702,00	1206,49
703,00	1195,78
704,00	1205,36
705,00	1198,77
706,00	1205,41
707,00	1199,84
708,00	1203,73
709,00	1197,80
710,00	1196,69
711,00	1203,81
712,00	1197,58
713,00	1198,50
714,00	1197,56
715,00	1195,10
716,00	1203,90
717,00	1197,90
718,00	1198,38
719,00	1194,46
720,00	1209,98
721,00	1202,29
722,00	1199,27
723,00	1220,20
724,00	1205,91
725,00	1204,12
726,00	1201,75
727,00	1197,94
728,00	1199,37
729,00	1221,68
730,00	1195,32
731,00	1202,10
732,00	1199,98
733,00	1194,84
734,00	1208,21
735,00	1197,14
736,00	1195,30
737,00	1195,29
738,00	1195,74
739,00	1196,92
740,00	1199,88
741,00	1203,56
742,00	1223,45
743,00	1200,83
744,00	1199,82
745,00	1192,15
746,00	1197,25
747,00	1199,14
748,00	1205,34
749,00	1214,00
750,00	1197,71
751,00	1198,30
752,00	1205,67
753,00	1208,34
754,00	1203,51
755,00	1220,57
756,00	1227,32
757,00	1248,61
758,00	1270,56
759,00	1310,45
760,00	1295,69
761,00	1253,44
762,00	1225,76
763,00	1220,21
764,00	1204,94
765,00	1208,45
766,00	1202,51
767,00	1207,00
768,00	1195,11
769,00	1195,58
770,00	1202,45
771,00	1194,64
772,00	1198,19
773,00	1200,66
774,00	1203,19
775,00	1205,57
776,00	1195,70
777,00	1197,13
778,00	1196,01
779,00	1195,01
780,00	1199,31
781,00	1192,47
782,00	1207,36
783,00	1198,63
784,00	1204,15
785,00	1218,25
786,00	1199,08
787,00	1198,60
788,00	1204,31
789,00	1199,15
790,00	1202,44
791,00	1199,30
792,00	1201,14
793,00	1196,52
794,00	1197,24
795,00	1197,59
796,00	1198,42
797,00	1197,24
798,00	1200,66
799,00	1199,49
800,00	1201,03
801,00	1208,10
802,00	1218,88
803,00	1210,27
804,00	1201,72
805,00	1198,76
806,00	1201,50
807,00	1196,31
808,00	1191,88
809,00	1193,12
810,00	1203,12
811,00	1195,14
812,00	1205,10
813,00	1198,69
814,00	1204,78
815,00	1198,78
816,00	1208,71
817,00	1201,81
818,00	1197,39
819,00	1205,17
820,00	1193,74
821,00	1207,27
822,00	1198,76
823,00	1196,87
824,00	1197,45
825,00	1198,98
826,00	1193,58
827,00	1201,50
828,00	1197,07
829,00	1214,27
830,00	1204,68
831,00	1209,59
832,00	1203,32
833,00	1199,44
834,00	1204,88
835,00	1195,08
836,00	1201,77
837,00	1199,82
838,00	1194,31
839,00	1200,11
840,00	1199,15
841,00	1502,39
842,00	1218,27
843,00	1212,34
844,00	1203,24
845,00	1211,00
846,00	1203,05
847,00	1198,96
848,00	1200,69
849,00	1200,23
850,00	1199,00
851,00	1195,92
852,00	1190,52
853,00	1202,22
854,00	1196,40
855,00	1192,95
856,00	1191,44
857,00	1202,20
858,00	1197,08
859,00	1209,11
860,00	1209,68
861,00	1197,39
862,00	1197,24
863,00	1194,56
864,00	1201,21
865,00	1193,92
866,00	1206,95
867,00	1202,06
868,00	1194,44
869,00	1207,51
870,00	1195,14
871,00	1200,75
872,00	1198,39
873,00	1194,13
874,00	1192,03
875,00	1197,54
876,00	1200,34
877,00	1192,11
878,00	1195,94
879,00	1204,26
880,00	1199,53
881,00	1193,65
882,00	1207,60
883,00	1196,49
884,00	1196,24
885,00	1198,02
886,00	1197,94
887,00	1202,35
888,00	1195,50
889,00	1193,36
890,00	1207,27
891,00	1212,80
892,00	1199,66
893,00	1191,17
894,00	1191,69
895,00	1195,24
896,00	1195,61
897,00	1192,25
898,00	1203,60
899,00	1196,63
900,00	1206,28
901,00	1195,78
902,00	1194,01
903,00	1198,54
904,00	1195,85
905,00	1200,09
906,00	1205,83
907,00	1204,72
908,00	1200,29
909,00	1198,41
910,00	1197,66
911,00	1199,33
912,00	1199,77
913,00	1199,86
914,00	1196,41
915,00	1199,50
916,00	1203,94
917,00	1196,95
918,00	1192,90
919,00	1191,85
920,00	1195,84
921,00	1198,89
922,00	1200,16
923,00	1203,64
924,00	1199,85
925,00	1194,87
926,00	1200,04
927,00	1197,55
928,00	1196,42
929,00	1198,47
930,00	1199,18
931,00	1204,49
932,00	1193,88
933,00	1210,52
934,00	1194,41
935,00	1206,18
936,00	1197,51
937,00	1192,56
938,00	1195,37
939,00	1211,90
940,00	1195,92
941,00	1194,46
942,00	1198,82
943,00	1197,82
944,00	1218,79
945,00	1202,77
946,00	1199,95
947,00	1201,90
948,00	1204,37
949,00	1200,08
950,00	1207,84
951,00	1199,86
952,00	1196,93
953,00	1194,06
954,00	1193,91
955,00	1205,16
956,00	1196,22
957,00	1192,93
958,00	1199,24
959,00	1199,05
960,00	1190,54
961,00	1203,03
962,00	1197,21
963,00	1199,79
964,00	1226,74
965,00	1199,42
966,00	1204,08
967,00	1205,31
968,00	1194,24
969,00	1216,79
970,00	1201,93
971,00	1204,11
972,00	1199,64
973,00	1201,82
974,00	1194,95
975,00	1197,27
976,00	1193,18
977,00	1202,47
978,00	1199,72
979,00	1194,62
980,00	1193,85
981,00	1201,16
982,00	1194,83
983,00	1191,49
984,00	1195,75
985,00	1194,73
986,00	1199,77
987,00	1205,29
988,00	1220,02
989,00	1196,73
990,00	1197,39
991,00	1200,55
992,00	1202,90
993,00	1193,59
994,00	1193,81
995,00	1198,24
996,00	1193,98
997,00	1202,66
998,00	1199,81
999,00	1213,91
1000,00	1192,43
1001,00	1204,29
1002,00	1192,90
1003,00	1193,17
1004,00	1207,48
1005,00	1194,25
1006,00	1195,69
1007,00	1198,71
1008,00	1198,21
1009,00	1194,74
1010,00	1196,57
1011,00	1193,87
1012,00	1204,45
1013,00	1192,70
1014,00	1196,38
1015,00	1199,49
1016,00	1201,01
1017,00	1193,63
1018,00	1203,33
1019,00	1203,48
1020,00	1200,24
1021,00	1194,42
1022,00	1196,14
1023,00	1191,41
1024,00	1204,25
1025,00	1191,17
1026,00	1198,90
1027,00	1199,22
1028,00	1211,29
1029,00	1199,89
1030,00	1194,62
1031,00	1194,31
1032,00	1195,93
1033,00	1202,21
1034,00	1198,46
1035,00	1206,56
1036,00	1197,98
1037,00	1200,56
1038,00	1198,28
1039,00	1190,99
1040,00	1198,64
1041,00	1195,52
1042,00	1205,15
1043,00	1201,90
1044,00	1244,92
1045,00	1203,21
1046,00	1194,18
1047,00	1195,90
1048,00	1202,02
1049,00	1200,46
1050,00	1203,81
1051,00	1196,21
1052,00	1200,13
1053,00	1201,60
1054,00	1195,06
1055,00	1203,30
1056,00	1205,85
1057,00	1197,99
1058,00	1196,56
1059,00	1202,12
1060,00	1197,75
1061,00	1200,55
1062,00	1195,72
1063,00	1190,86
1064,00	1206,76
1065,00	1197,04
1066,00	1192,66
1067,00	1203,01
1068,00	1198,08
1069,00	1202,96
1070,00	1206,13
1071,00	1208,93
1072,00	1201,15
1073,00	1199,61
1074,00	1197,13
1075,00	1213,64
1076,00	1196,88
1077,00	1198,00
1078,00	1197,75
1079,00	1192,99
1080,00	1214,50
1081,00	1206,03
1082,00	1196,25
1083,00	1201,90
1084,00	1197,68
1085,00	1206,17
1086,00	1192,74
1087,00	1207,04
1088,00	1205,26
1089,00	1197,89
1090,00	1198,63
1091,00	1204,23
1092,00	1209,41
1093,00	1219,87
1094,00	1202,48
1095,00	1198,19
1096,00	1199,86
1097,00	1201,40
1098,00	1194,67
1099,00	1207,63
1100,00	1196,72
1101,00	1196,92
1102,00	1195,20
1103,00	1205,24
1104,00	1204,18
1105,00	1212,46
1106,00	1202,19
1107,00	1200,65
1108,00	1199,49
1109,00	1195,77
1110,00	1197,51
1111,00	1214,78
1112,00	1204,41
1113,00	1199,47
1114,00	1201,17
1115,00	1194,50
1116,00	1203,96
1117,00	1197,39
1118,00	1198,00
1119,00	1200,05
1120,00	1206,03
1121,00	1235,86
1122,00	1200,56
1123,00	1197,28
1124,00	1207,87
1125,00	1192,08
1126,00	1201,63
1127,00	1201,28
1128,00	1221,85
1129,00	1194,34
1130,00	1194,17
1131,00	1206,15
1132,00	1202,59
1133,00	1203,47
1134,00	1213,81
1135,00	1206,81
1136,00	1207,19
1137,00	1203,39
1138,00	1197,72
1139,00	1197,24
1140,00	1200,38
1141,00	1195,88
1142,00	1197,26
1143,00	1198,77
1144,00	1208,09
1145,00	1211,73
1146,00	1199,14
1147,00	1202,85
1148,00	1196,28
1149,00	1195,77
1150,00	1198,71
1151,00	1207,53
1152,00	1202,38
1153,00	1198,43
1154,00	1205,10
1155,00	1197,26
1156,00	1203,88
1157,00	1204,32
1158,00	1203,85
1159,00	1199,28
1160,00	1196,75
1161,00	1202,38
1162,00	1204,39
1163,00	1196,00
1164,00	1193,28
1165,00	1213,30
1166,00	1211,43
1167,00	1199,50
1168,00	1202,80
1169,00	1195,42
1170,00	1198,72
1171,00	1208,97
1172,00	1199,04
1173,00	1199,95
1174,00	1197,96
1175,00	1196,82
1176,00	1197,55
1177,00	1204,06
1178,00	1214,47
1179,00	1206,47
1180,00	1198,80
1181,00	1203,57
1182,00	1201,13
1183,00	1200,22
1184,00	1197,77
1185,00	1197,86
1186,00	1205,49
1187,00	1199,71
1188,00	1203,34
1189,00	1195,85
1190,00	1197,01
1191,00	1204,89
1192,00	1208,36
1193,00	1197,10
1194,00	1197,01
1195,00	1200,52
1196,00	1205,01
1197,00	1195,35
1198,00	1208,66
1199,00	1203,69
1200,00	1198,74
1201,00	1192,33
1202,00	1199,25
1203,00	1203,46
1204,00	1195,86
1205,00	1201,65
1206,00	1194,22
1207,00	1205,25
1208,00	1204,96
1209,00	1192,12
1210,00	1196,97
1211,00	1205,14
1212,00	1195,38
1213,00	1198,34
1214,00	1193,32
1215,00	1200,69
1216,00	1193,53
1217,00	1201,82
1218,00	1197,60
1219,00	1200,79
1220,00	1197,79
1221,00	1211,23
1222,00	1204,03
1223,00	1194,89
1224,00	1198,65
1225,00	1194,89
1226,00	1199,40
1227,00	1200,40
1228,00	1195,78
1229,00	1198,24
1230,00	1198,87
1231,00	1197,60
1232,00	1196,56
1233,00	1195,07
1234,00	1198,01
1235,00	1195,15
1236,00	1203,41
1237,00	1201,37
1238,00	1196,34
1239,00	1201,33
1240,00	1191,27
1241,00	1204,93
1242,00	1200,57
1243,00	1205,36
1244,00	1195,63
1245,00	1200,14
1246,00	1199,13
1247,00	1207,33
1248,00	1204,56
1249,00	1203,37
1250,00	1198,56
1251,00	1203,54
1252,00	1199,28
1253,00	1211,75
1254,00	1200,16
1255,00	1202,45
1256,00	1198,53
1257,00	1200,38
1258,00	1196,58
1259,00	1192,00
1260,00	1202,27
1261,00	1201,34
1262,00	1193,67
1263,00	1194,21
1264,00	1200,34
1265,00	1195,99
1266,00	1216,11
1267,00	1200,36
1268,00	1195,11
1269,00	1199,45
1270,00	1205,46
1271,00	1194,12
1272,00	1198,96
1273,00	1202,24
1274,00	1200,03
1275,00	1195,93
1276,00	1214,91
1277,00	1272,58
1278,00	1211,74
1279,00	1200,74
1280,00	1201,40
1281,00	1196,09
1282,00	1198,15
1283,00	1195,85
1284,00	1195,63
1285,00	1219,32
1286,00	1194,75
1287,00	1197,80
1288,00	1198,69
1289,00	1218,58
1290,00	1198,21
1291,00	1196,04
1292,00	1201,04
1293,00	1197,83
1294,00	1193,69
1295,00	1197,80
1296,00	1208,54
1297,00	1196,30
1298,00	1199,88
1299,00	1194,83
1300,00	1202,67
1301,00	1204,70
1302,00	1213,80
1303,00	1198,38
1304,00	1213,46
1305,00	1203,73
1306,00	1199,36
1307,00	1200,60
1308,00	1204,72
1309,00	1197,17
1310,00	1198,45
1311,00	1197,44
1312,00	1195,67
1313,00	1196,11
1314,00	1199,62
1315,00	1209,96
1316,00	1192,69
1317,00	1194,93
1318,00	1197,46
1319,00	1202,99
1320,00	1198,74
1321,00	1203,69
1322,00	1258,09
1323,00	1195,71
1324,00	1196,88
1325,00	1194,53
1326,00	1195,52
1327,00	1193,20
1328,00	1200,19
1329,00	1195,28
1330,00	1200,24
1331,00	1201,78
1332,00	1194,45
1333,00	1198,28
1334,00	1193,85
1335,00	1206,63
1336,00	1202,87
1337,00	1204,00
1338,00	1197,23
1339,00	1197,04
1340,00	1201,34
1341,00	1201,39
1342,00	1196,64
1343,00	1208,31
1344,00	1201,63
1345,00	1192,44
1346,00	1192,68
1347,00	1198,95
1348,00	1200,38
1349,00	1194,44
1350,00	1213,27
1351,00	1210,91
1352,00	1202,77
1353,00	1199,05
1354,00	1230,12
1355,00	1196,55
1356,00	1191,88
1357,00	1193,36
1358,00	1200,48
1359,00	1204,04
1360,00	1197,85
1361,00	1194,89
1362,00	1198,36
1363,00	1198,88
1364,00	1206,33
1365,00	1207,40
1366,00	1194,30
1367,00	1193,20
1368,00	1197,96
1369,00	1196,78
1370,00	1203,63
1371,00	1197,15
1372,00	1191,12
1373,00	1213,57
1374,00	1200,40
1375,00	1201,48
1376,00	1202,70
1377,00	1204,24
1378,00	1208,95
1379,00	1201,84
1380,00	1224,85
1381,00	1194,99
1382,00	1194,45
1383,00	1215,42
1384,00	1195,45
1385,00	1198,90
1386,00	1207,88
1387,00	1204,76
1388,00	1197,23
1389,00	1208,65
1390,00	1195,15
1391,00	1197,18
1392,00	1211,08
1393,00	1204,23
1394,00	1199,83
1395,00	1196,25
1396,00	1209,36
1397,00	1196,32
1398,00	1224,18
1399,00	1247,36
1400,00	1209,96
1401,00	1209,84
1402,00	1243,17
1403,00	1204,35
1404,00	1196,17
1405,00	1197,62
1406,00	1198,43
1407,00	1199,18
1408,00	1200,41
1409,00	1197,96
1410,00	1195,41
1411,00	1400,61
1412,00	1213,43
1413,00	1192,25
1414,00	1194,63
1415,00	1196,04
1416,00	1193,20
1417,00	1195,66
1418,00	1200,41
1419,00	1203,14
1420,00	1195,70
1421,00	1192,18
1422,00	1192,77
1423,00	1190,75
1424,00	1198,52
1425,00	1190,49
1426,00	1200,14
1427,00	1199,03
1428,00	1190,68
1429,00	1196,88
1430,00	1189,93
1431,00	1195,81
1432,00	1202,29
1433,00	1192,18
1434,00	1204,97
1435,00	1199,96
1436,00	1195,29
1437,00	1207,03
1438,00	1196,65
1439,00	1197,50
1440,00	1198,31
1441,00	1194,46
1442,00	1193,38
1443,00	1193,96
1444,00	1195,00
1445,00	1195,49
1446,00	1202,94
1447,00	1198,97
1448,00	1201,67
1449,00	1198,56
1450,00	1198,88
1451,00	1192,50
1452,00	1206,24
1453,00	1194,40
1454,00	1205,30
1455,00	1207,01
1456,00	1196,32
1457,00	1209,15
1458,00	1204,68
1459,00	1195,06
1460,00	1194,87
1461,00	1199,51
1462,00	1196,64
1463,00	1201,04
1464,00	1196,80
1465,00	1196,64
1466,00	1194,23
1467,00	1202,58
1468,00	1196,57
1469,00	1194,27
1470,00	1197,02
1471,00	1202,44
1472,00	1197,77
1473,00	1192,61
1474,00	1197,43
1475,00	1194,19
1476,00	1218,24
1477,00	1205,98
1478,00	1245,93
1479,00	1216,40
1480,00	1202,67
1481,00	1197,29
1482,00	1197,57
1483,00	1193,17
1484,00	1206,64
1485,00	1206,30
1486,00	1195,36
1487,00	1202,09
1488,00	1200,91
1489,00	1201,43
1490,00	1203,06
1491,00	1201,23
1492,00	1196,06
1493,00	1193,50
1494,00	1194,39
1495,00	1206,37
1496,00	1199,15
1497,00	1208,74
1498,00	1209,57
1499,00	1203,99
1500,00	1197,89
1501,00	1198,49
1502,00	1193,61
1503,00	1213,94
1504,00	1197,68
1505,00	1206,69
1506,00	1195,19
1507,00	1192,96
1508,00	1199,01
1509,00	1195,19
1510,00	1192,95
1511,00	1202,87
1512,00	1198,39
1513,00	1197,32
1514,00	1198,87
1515,00	1198,07
1516,00	1256,41
1517,00	1212,81
1518,00	1199,78
1519,00	1198,80
1520,00	1203,19
1521,00	1194,68
1522,00	1199,98
1523,00	1200,09
1524,00	1196,10
1525,00	1192,33
1526,00	1194,27
1527,00	1194,07
1528,00	1201,10
1529,00	1192,09
1530,00	1192,98
1531,00	1197,21
1532,00	1195,86
1533,00	1193,06
1534,00	1197,12
1535,00	1190,08
1536,00	1200,99
1537,00	1205,90
1538,00	1202,43
1539,00	1204,66
1540,00	1198,62
1541,00	1200,61
1542,00	1196,90
1543,00	1196,29
1544,00	1201,14
1545,00	1198,86
1546,00	1197,56
1547,00	1197,43
1548,00	1196,95
1549,00	1196,47
1550,00	1195,91
1551,00	1198,44
1552,00	1195,32
1553,00	1191,80
1554,00	1193,82
1555,00	1191,15
1556,00	1196,15
1557,00	1203,75
1558,00	1198,05
1559,00	1196,81
1560,00	1198,12
1561,00	1196,44
1562,00	1207,10
1563,00	1196,71
1564,00	1195,35
1565,00	1199,21
1566,00	1198,31
1567,00	1202,69
1568,00	1198,93
1569,00	1197,96
1570,00	1198,95
1571,00	1201,25
1572,00	1205,83
1573,00	1200,10
1574,00	1207,86
1575,00	1194,99
1576,00	1191,51
1577,00	1193,98
1578,00	1202,34
1579,00	1196,43
1580,00	1195,94
1581,00	1195,34
1582,00	1193,79
1583,00	1211,97
1584,00	1196,76
1585,00	1188,66
1586,00	1196,75
1587,00	1198,52
1588,00	1205,47
1589,00	1194,21
1590,00	1199,99
1591,00	1196,35
1592,00	1210,53
1593,00	1194,37
1594,00	1197,76
1595,00	1192,34
1596,00	1192,91
1597,00	1193,36
1598,00	1193,10
1599,00	1198,62
1600,00	1191,37
1601,00	1200,46
1602,00	1203,77
1603,00	1198,27
1604,00	1194,24
1605,00	1208,62
1606,00	1192,37
1607,00	1196,32
1608,00	1191,98
1609,00	1196,02
1610,00	1194,51
1611,00	1206,46
1612,00	1195,32
1613,00	1200,69
1614,00	1194,00
1615,00	1195,30
1616,00	1203,05
1617,00	1197,30
1618,00	1199,99
1619,00	1194,41
1620,00	1205,73
1621,00	1201,39
1622,00	1194,88
1623,00	1205,30
1624,00	1203,94
1625,00	1198,03
1626,00	1213,53
1627,00	1199,19
1628,00	1197,51
1629,00	1253,92
1630,00	1202,97
1631,00	1195,52
1632,00	1200,91
1633,00	1197,91
1634,00	1196,96
1635,00	1194,12
1636,00	1196,04
1637,00	1194,07
1638,00	1194,42
1639,00	1193,74
1640,00	1201,64
1641,00	1206,78
1642,00	1206,33
1643,00	1196,45
1644,00	1215,56
1645,00	1203,50
1646,00	1196,15
1647,00	1203,68
1648,00	1197,98
1649,00	1196,65
1650,00	1215,88
1651,00	1208,25
1652,00	1193,01
1653,00	1196,30
1654,00	1199,21
1655,00	1196,90
1656,00	1196,07
1657,00	1205,32
1658,00	1195,72
1659,00	1204,22
1660,00	1205,05
1661,00	1202,80
1662,00	1200,47
1663,00	1205,55
1664,00	1202,36
1665,00	1192,71
1666,00	1199,27
1667,00	1211,64
1668,00	1192,03
1669,00	1194,92
1670,00	1201,77
1671,00	1191,85
1672,00	1189,54
1673,00	1202,83
1674,00	1202,40
1675,00	1199,96
1676,00	1198,75
1677,00	1198,91
1678,00	1197,05
1679,00	1197,92
1680,00	1202,53
1681,00	1203,73
1682,00	1219,06
1683,00	1201,77
1684,00	1208,44
1685,00	1200,33
1686,00	1194,50
1687,00	1194,08
1688,00	1204,94
1689,00	1196,11
1690,00	1191,52
1691,00	1192,10
1692,00	1195,22
1693,00	1208,17
1694,00	1193,02
1695,00	1198,19
1696,00	1195,31
1697,00	1201,17
1698,00	1193,89
1699,00	1199,06
1700,00	1200,56
1701,00	1204,76
1702,00	1194,01
1703,00	1193,00
1704,00	1193,38
1705,00	1201,55
1706,00	1194,88
1707,00	1193,96
1708,00	1195,05
1709,00	1200,09
1710,00	1197,56
1711,00	1194,68
1712,00	1198,65
1713,00	1213,90
1714,00	1202,06
1715,00	1197,28
1716,00	1208,90
1717,00	1196,01
1718,00	1211,85
1719,00	1205,49
1720,00	1198,38
1721,00	1200,31
1722,00	1195,61
1723,00	1203,66
1724,00	1194,69
1725,00	1199,16
1726,00	1199,37
1727,00	1192,40
1728,00	1205,50
1729,00	1194,63
1730,00	1213,45
1731,00	1200,46
1732,00	1215,98
1733,00	1199,18
1734,00	1192,74
1735,00	1196,48
1736,00	1196,44
1737,00	1193,76
1738,00	1195,67
1739,00	1203,97
1740,00	1201,03
1741,00	1215,77
1742,00	1197,18
1743,00	1194,45
1744,00	1195,88
1745,00	1195,92
1746,00	1197,44
1747,00	1199,31
1748,00	1203,55
1749,00	1214,47
1750,00	1202,83
1751,00	1216,24
1752,00	1192,60
1753,00	1194,12
1754,00	1197,18
1755,00	1199,87
1756,00	1195,52
1757,00	1206,65
1758,00	1195,56
1759,00	1192,92
1760,00	1195,26
1761,00	1201,53
1762,00	1194,73
1763,00	1189,42
1764,00	1203,77
1765,00	1194,41
1766,00	1193,83
1767,00	1193,78
1768,00	1196,25
1769,00	1199,89
1770,00	1194,99
1771,00	1200,22
1772,00	1213,05
1773,00	1197,52
1774,00	1190,87
1775,00	1194,38
1776,00	1199,56
1777,00	1191,71
1778,00	1194,60
1779,00	1195,78
1780,00	1193,32
1781,00	1193,55
1782,00	1195,08
1783,00	1198,36
1784,00	1199,62
1785,00	1197,19
1786,00	1201,83
1787,00	1196,97
1788,00	1200,13
1789,00	1200,36
1790,00	1205,19
1791,00	1195,44
1792,00	1197,54
1793,00	1195,56
1794,00	1194,33
1795,00	1195,37
1796,00	1193,76
1797,00	1189,40
1798,00	1194,64
1799,00	1192,35
1800,00	1203,21
1801,00	1195,91
1802,00	1203,48
1803,00	1196,29
1804,00	1199,40
1805,00	1197,88
1806,00	1201,73
1807,00	1195,56
1808,00	1190,45
1809,00	1197,72
1810,00	1203,57
1811,00	1201,79
1812,00	1194,96
1813,00	1197,69
1814,00	1198,02
1815,00	1205,87
1816,00	1218,06
1817,00	1197,05
1818,00	1240,35
1819,00	1208,76
1820,00	1200,97
1821,00	1194,32
1822,00	1192,71
1823,00	1193,13
1824,00	1198,15
1825,00	1211,76
1826,00	1197,81
1827,00	1209,51
1828,00	1216,68
1829,00	1196,11
1830,00	1203,98
1831,00	1195,72
1832,00	1189,01
1833,00	1191,05
1834,00	1192,43
1835,00	1195,61
1836,00	1191,02
1837,00	1192,93
1838,00	1200,95
1839,00	1208,28
1840,00	1215,59
1841,00	1200,73
1842,00	1200,53
1843,00	1202,85
1844,00	1212,65
1845,00	1203,41
1846,00	1195,97
1847,00	1196,47
1848,00	1200,14
1849,00	1195,84
1850,00	1203,83
1851,00	1202,85
1852,00	1194,27
1853,00	1194,64
1854,00	1195,00
1855,00	1194,28
1856,00	1192,83
1857,00	1196,62
1858,00	1211,13
1859,00	1190,20
1860,00	1199,62
1861,00	1232,70
1862,00	1193,83
1863,00	1197,14
1864,00	1192,35
1865,00	1201,25
1866,00	1199,82
1867,00	1193,89
1868,00	1198,29
1869,00	1192,09
1870,00	1195,82
1871,00	1191,13
1872,00	1198,58
1873,00	1196,03
1874,00	1199,39
1875,00	1198,57
1876,00	1192,59
1877,00	1198,13
1878,00	1208,36
1879,00	1203,26
1880,00	1193,59
1881,00	1202,44
1882,00	1195,06
1883,00	1194,52
1884,00	1192,63
1885,00	1198,46
1886,00	1202,31
1887,00	1191,10
1888,00	1195,59
1889,00	1196,05
1890,00	1193,91
1891,00	1200,88
1892,00	1207,35
1893,00	1198,36
1894,00	1202,72
1895,00	1201,94
1896,00	1204,65
1897,00	1221,02
1898,00	1197,74
1899,00	1200,82
1900,00	1196,12
1901,00	1199,18
1902,00	1198,32
1903,00	1208,75
1904,00	1200,40
1905,00	1238,54
1906,00	1198,42
1907,00	1195,90
1908,00	1232,53
1909,00	1195,22
1910,00	1195,51
1911,00	1198,56
1912,00	1200,08
1913,00	1211,67
1914,00	1197,24
1915,00	1195,21
1916,00	1201,72
1917,00	1196,44
1918,00	1196,70
1919,00	1196,42
1920,00	1193,03
1921,00	1205,24
1922,00	1196,95
1923,00	1197,91
1924,00	1198,71
1925,00	1193,43
1926,00	1198,19
1927,00	1203,26
1928,00	1205,77
1929,00	1200,28
1930,00	1195,93
1931,00	1203,67
1932,00	1220,48
1933,00	1199,93
1934,00	1192,92
1935,00	1192,32
1936,00	1198,95
1937,00	1193,45
1938,00	1198,07
1939,00	1194,14
1940,00	1212,10
1941,00	1192,63
1942,00	1198,02
1943,00	1194,32
1944,00	1201,33
1945,00	1193,75
1946,00	1192,77
1947,00	1190,35
1948,00	1215,66
1949,00	1191,20
1950,00	1203,11
1951,00	1193,50
1952,00	1195,28
1953,00	1190,94
1954,00	1202,86
1955,00	1194,83
1956,00	1195,56
1957,00	1197,95
1958,00	1188,33
1959,00	1195,83
1960,00	1193,27
1961,00	1204,61
1962,00	1190,49
1963,00	1199,45
1964,00	1191,09
1965,00	1200,77
1966,00	1195,30
1967,00	1204,16
1968,00	1194,31
1969,00	1194,98
1970,00	1200,01
1971,00	1201,82
1972,00	1196,60
1973,00	1201,63
1974,00	1201,00
1975,00	1202,19
1976,00	1200,44
1977,00	1198,30
1978,00	1194,28
1979,00	1199,21
1980,00	1238,10
1981,00	1198,31
1982,00	1193,27
1983,00	1198,73
1984,00	1196,79
1985,00	1208,82
1986,00	1193,06
1987,00	1191,52
1988,00	1194,78
1989,00	1198,41
1990,00	1210,84
1991,00	1201,37
1992,00	1204,16
1993,00	1223,06
1994,00	1199,96
1995,00	1190,67
1996,00	1197,84
1997,00	1201,29
1998,00	1201,02
1999,00	1191,60
2000,00	1188,51
2001,00	1193,90
2002,00	1207,17
2003,00	1192,44
2004,00	1203,26
2005,00	1193,12
2006,00	1211,87
2007,00	1197,15
2008,00	1191,32
2009,00	1207,55
2010,00	1194,69
2011,00	1193,65
2012,00	1194,87
2013,00	1195,93
2014,00	1198,20
2015,00	1193,56
2016,00	1190,81
2017,00	1194,92
2018,00	1199,43
2019,00	1194,93
2020,00	1194,24
2021,00	1199,80
2022,00	1198,75
2023,00	1195,30
2024,00	1194,18
2025,00	1205,18
2026,00	1194,95
2027,00	1193,24
2028,00	1201,39
2029,00	1192,54
2030,00	1194,37
2031,00	1193,43
2032,00	1192,51
2033,00	1200,11
2034,00	1211,37
2035,00	1196,73
2036,00	1197,42
2037,00	1193,35
2038,00	1195,21
2039,00	1193,69
2040,00	1199,40
2041,00	1200,03
2042,00	1193,22
2043,00	1199,50
2044,00	1199,32
2045,00	1195,65
2046,00	1195,65
2047,00	1195,65
>>>>>End Processed Spectral Data<<<<<
