SpectraSuite Datei
++++++++++++++++++++++++++++++++++++
Datum: Thu Sep 19 13:46:27 CEST 2024
Benutzer: Student
Dark-Spektrum vorhanden: Nein
Referenz-Spektrum vorhanden: Nein
Zahl der probierten Teilspektren: 1
Spektrometer: USB2+H15728
Integrationszeit (usec): 125000 (USB2+H15728)
Spektren Durchschnitt berechnet: 2500 (USB2+H15728)
Boxcar Glättung: 0 (USB2+H15728)
Dunkelstromkorrektur: Nein (USB2+H15728)
Puls/Lampe aktiviert: Nein (USB2+H15728)
Correct for Detector Non-linearity: Nein (USB2+H15728)
Streulichtkorrektur: Nein (USB2+H15728)
Anzahl Pixel in verarbeitetem Spektrum: 2048
>>>>>Begin Processed Spectral Data<<<<<
0,00	993,50
1,00	993,50
2,00	993,50
3,00	962,26
4,00	975,90
5,00	975,70
6,00	976,77
7,00	986,54
8,00	1009,00
9,00	1009,50
10,00	1025,03
11,00	1046,29
12,00	1050,38
13,00	1096,41
14,00	1080,70
15,00	1102,37
16,00	1115,78
17,00	1143,73
18,00	1148,27
19,00	1182,44
20,00	1179,44
21,00	1194,77
22,00	1213,95
23,00	1234,49
24,00	1234,59
25,00	1253,66
26,00	1267,84
27,00	1286,89
28,00	1283,30
29,00	1291,53
30,00	1304,19
31,00	1307,98
32,00	1335,84
33,00	1317,32
34,00	1326,52
35,00	1331,36
36,00	1331,98
37,00	1325,70
38,00	1333,23
39,00	1355,57
40,00	1331,06
41,00	1347,56
42,00	1335,10
43,00	1342,99
44,00	1330,87
45,00	1330,81
46,00	1326,01
47,00	1338,37
48,00	1328,35
49,00	1343,39
50,00	1326,93
51,00	1329,44
52,00	1322,15
53,00	1339,74
54,00	1320,28
55,00	1317,36
56,00	1330,39
57,00	1316,57
58,00	1314,04
59,00	1312,96
60,00	1301,27
61,00	1311,11
62,00	1305,57
63,00	1301,18
64,00	1304,23
65,00	1299,23
66,00	1302,21
67,00	1302,71
68,00	1302,21
69,00	1298,62
70,00	1368,08
71,00	1307,70
72,00	1299,78
73,00	1299,94
74,00	1301,00
75,00	1297,99
76,00	1297,20
77,00	1305,16
78,00	1300,98
79,00	1303,07
80,00	1303,36
81,00	1295,66
82,00	1307,52
83,00	1297,07
84,00	1325,63
85,00	1307,74
86,00	1334,25
87,00	1326,82
88,00	1299,56
89,00	1297,91
90,00	1304,59
91,00	1323,12
92,00	1309,53
93,00	1313,90
94,00	1304,17
95,00	1301,17
96,00	1303,97
97,00	1360,75
98,00	1308,70
99,00	1305,25
100,00	1312,77
101,00	1317,11
102,00	1306,52
103,00	1306,33
104,00	1307,18
105,00	1320,36
106,00	1315,72
107,00	1315,98
108,00	1316,36
109,00	1311,32
110,00	1334,17
111,00	1320,98
112,00	1309,03
113,00	1319,31
114,00	1309,77
115,00	1310,12
116,00	1311,60
117,00	1308,57
118,00	1310,69
119,00	1337,01
120,00	1311,89
121,00	1308,33
122,00	1315,97
123,00	1307,96
124,00	1309,20
125,00	1307,91
126,00	1316,89
127,00	1318,23
128,00	1311,71
129,00	1318,87
130,00	1315,48
131,00	1322,51
132,00	1310,15
133,00	1325,20
134,00	1315,37
135,00	1311,92
136,00	1309,64
137,00	1321,98
138,00	1335,01
139,00	1318,21
140,00	1316,92
141,00	1327,87
142,00	1315,72
143,00	1308,77
144,00	1316,38
145,00	1313,72
146,00	1315,47
147,00	1330,73
148,00	1363,90
149,00	1322,29
150,00	1310,78
151,00	1321,69
152,00	1311,53
153,00	1312,67
154,00	1313,35
155,00	1309,40
156,00	1325,13
157,00	1314,49
158,00	1318,63
159,00	1327,44
160,00	1326,80
161,00	1331,05
162,00	1311,46
163,00	1314,52
164,00	1313,66
165,00	1311,35
166,00	1315,32
167,00	1321,97
168,00	1311,38
169,00	1312,73
170,00	1315,99
171,00	1310,38
172,00	1328,68
173,00	1310,28
174,00	1315,28
175,00	1317,97
176,00	1315,71
177,00	1315,05
178,00	1322,08
179,00	1313,87
180,00	1323,07
181,00	1314,70
182,00	1313,78
183,00	1344,39
184,00	1313,59
185,00	1313,08
186,00	1311,21
187,00	1317,94
188,00	1329,49
189,00	1318,27
190,00	1313,35
191,00	1314,49
192,00	1324,84
193,00	1314,62
194,00	1319,79
195,00	1325,87
196,00	1328,32
197,00	1321,96
198,00	1341,56
199,00	1316,21
200,00	1312,72
201,00	1326,79
202,00	1323,68
203,00	1320,93
204,00	1320,67
205,00	1324,92
206,00	1319,27
207,00	1320,17
208,00	1322,87
209,00	1321,71
210,00	1327,18
211,00	1328,36
212,00	1316,10
213,00	1326,99
214,00	1325,87
215,00	1323,14
216,00	1321,51
217,00	1322,33
218,00	1335,39
219,00	1318,80
220,00	1340,65
221,00	1325,31
222,00	1329,80
223,00	1321,89
224,00	1321,92
225,00	1313,28
226,00	1323,39
227,00	1317,24
228,00	1318,90
229,00	1322,96
230,00	1318,69
231,00	1327,82
232,00	1326,19
233,00	1320,89
234,00	1323,88
235,00	1324,51
236,00	1342,29
237,00	1324,49
238,00	1319,43
239,00	1317,95
240,00	1326,81
241,00	1331,55
242,00	1320,25
243,00	1329,37
244,00	1323,27
245,00	1317,44
246,00	1318,51
247,00	1324,53
248,00	1328,99
249,00	1333,34
250,00	1334,91
251,00	1321,79
252,00	1332,20
253,00	1324,86
254,00	1331,44
255,00	1317,69
256,00	1326,92
257,00	1326,58
258,00	1321,88
259,00	1322,84
260,00	1317,85
261,00	1321,68
262,00	1316,02
263,00	1318,61
264,00	1325,98
265,00	1324,21
266,00	1321,01
267,00	1321,28
268,00	1329,98
269,00	1326,54
270,00	1324,70
271,00	1333,05
272,00	1328,64
273,00	1323,42
274,00	1322,24
275,00	1324,07
276,00	1319,70
277,00	1325,93
278,00	1322,84
279,00	1331,76
280,00	1319,63
281,00	1324,33
282,00	1318,87
283,00	1327,95
284,00	1324,66
285,00	1326,52
286,00	1331,32
287,00	1325,79
288,00	1318,03
289,00	1323,41
290,00	1334,55
291,00	1321,09
292,00	1332,41
293,00	1324,60
294,00	1327,88
295,00	1327,35
296,00	1319,92
297,00	1319,74
298,00	1327,52
299,00	1326,38
300,00	1327,77
301,00	1329,24
302,00	1323,52
303,00	1332,20
304,00	1323,27
305,00	1332,55
306,00	1324,83
307,00	1320,71
308,00	1325,61
309,00	1327,56
310,00	1323,64
311,00	1321,73
312,00	1325,57
313,00	1340,12
314,00	1332,70
315,00	1321,94
316,00	1325,77
317,00	1319,65
318,00	1320,83
319,00	1328,16
320,00	1324,36
321,00	1321,54
322,00	1320,97
323,00	1336,93
324,00	1326,11
325,00	1334,51
326,00	1320,85
327,00	1326,95
328,00	1332,80
329,00	1332,52
330,00	1324,99
331,00	1324,14
332,00	1321,33
333,00	1331,96
334,00	1326,31
335,00	1328,46
336,00	1330,47
337,00	1325,92
338,00	1335,72
339,00	1321,51
340,00	1319,98
341,00	1323,62
342,00	1321,88
343,00	1338,47
344,00	1351,70
345,00	1325,38
346,00	1321,75
347,00	1332,60
348,00	1320,46
349,00	1342,68
350,00	1326,57
351,00	1320,18
352,00	1347,51
353,00	1333,51
354,00	1319,70
355,00	1325,23
356,00	1328,83
357,00	1337,11
358,00	1322,45
359,00	1323,94
360,00	1329,54
361,00	1326,13
362,00	1338,10
363,00	1332,18
364,00	1337,81
365,00	1327,35
366,00	1327,42
367,00	1323,31
368,00	1325,30
369,00	1324,48
370,00	1321,27
371,00	1321,79
372,00	1341,37
373,00	1324,97
374,00	1325,91
375,00	1324,77
376,00	1321,99
377,00	1400,24
378,00	1328,89
379,00	1324,74
380,00	1321,99
381,00	1349,60
382,00	1335,08
383,00	1325,26
384,00	1323,10
385,00	1322,74
386,00	1328,57
387,00	1330,21
388,00	1331,63
389,00	1339,95
390,00	1333,23
391,00	1328,51
392,00	1324,02
393,00	1329,15
394,00	1328,18
395,00	1326,17
396,00	1332,06
397,00	1324,50
398,00	1333,39
399,00	1326,17
400,00	1333,41
401,00	1323,55
402,00	1325,65
403,00	1326,88
404,00	1330,76
405,00	1333,20
406,00	1323,56
407,00	1335,82
408,00	1326,98
409,00	1338,60
410,00	1330,89
411,00	1326,30
412,00	1321,30
413,00	1322,47
414,00	1347,47
415,00	1333,72
416,00	1340,84
417,00	1328,20
418,00	1325,65
419,00	1327,05
420,00	1334,84
421,00	1328,07
422,00	1333,00
423,00	1324,32
424,00	1323,33
425,00	1322,87
426,00	1323,69
427,00	1326,96
428,00	1325,49
429,00	1323,21
430,00	1323,51
431,00	1327,11
432,00	1325,65
433,00	1324,47
434,00	1337,64
435,00	1333,41
436,00	1343,73
437,00	1331,24
438,00	1328,20
439,00	1326,64
440,00	1331,08
441,00	1326,21
442,00	1334,72
443,00	1325,41
444,00	1324,80
445,00	1326,20
446,00	1334,03
447,00	1327,83
448,00	1343,14
449,00	1329,15
450,00	1321,65
451,00	1346,40
452,00	1341,47
453,00	1329,23
454,00	1333,92
455,00	1327,14
456,00	1329,30
457,00	1367,00
458,00	1326,79
459,00	1327,02
460,00	1324,75
461,00	1323,87
462,00	1323,14
463,00	1325,78
464,00	1329,50
465,00	1322,69
466,00	1332,05
467,00	1330,56
468,00	1326,26
469,00	1333,43
470,00	1340,30
471,00	1329,53
472,00	1344,50
473,00	1325,06
474,00	1323,64
475,00	1332,17
476,00	1323,90
477,00	1326,25
478,00	1335,89
479,00	1332,05
480,00	1330,14
481,00	1321,72
482,00	1330,06
483,00	1344,57
484,00	1328,07
485,00	1342,64
486,00	1323,86
487,00	1327,28
488,00	1334,19
489,00	1325,54
490,00	1333,37
491,00	1335,37
492,00	1331,59
493,00	1322,90
494,00	1332,58
495,00	1342,86
496,00	1333,24
497,00	1325,29
498,00	1330,53
499,00	1322,47
500,00	1322,19
501,00	1325,98
502,00	1332,97
503,00	1328,49
504,00	1331,56
505,00	1334,10
506,00	1339,86
507,00	1343,26
508,00	1339,90
509,00	1323,39
510,00	1326,66
511,00	1334,63
512,00	1330,11
513,00	1340,99
514,00	1361,04
515,00	1328,91
516,00	1328,70
517,00	1326,89
518,00	1329,55
519,00	1343,80
520,00	1341,12
521,00	1321,67
522,00	1332,61
523,00	1353,14
524,00	1335,75
525,00	1324,98
526,00	1325,78
527,00	1330,54
528,00	1333,06
529,00	1333,59
530,00	1328,64
531,00	1330,66
532,00	1322,17
533,00	1333,69
534,00	1327,21
535,00	1333,89
536,00	1335,97
537,00	1334,84
538,00	1342,04
539,00	1333,31
540,00	1324,40
541,00	1337,64
542,00	1325,84
543,00	1334,11
544,00	1334,16
545,00	1327,78
546,00	1324,33
547,00	1337,68
548,00	1329,87
549,00	1324,22
550,00	1328,98
551,00	1330,34
552,00	1359,35
553,00	1339,28
554,00	1334,02
555,00	1338,70
556,00	1326,44
557,00	1332,73
558,00	1324,33
559,00	1327,87
560,00	1342,15
561,00	1343,02
562,00	1336,92
563,00	1329,54
564,00	1331,75
565,00	1334,67
566,00	1330,52
567,00	1334,69
568,00	1331,92
569,00	1328,54
570,00	1331,38
571,00	1332,38
572,00	1325,33
573,00	1330,14
574,00	1328,77
575,00	1335,35
576,00	1340,93
577,00	1333,36
578,00	1325,53
579,00	1324,46
580,00	1329,32
581,00	1333,02
582,00	1327,67
583,00	1327,11
584,00	1324,03
585,00	1339,25
586,00	1327,71
587,00	1330,76
588,00	1326,74
589,00	1328,76
590,00	1337,52
591,00	1324,34
592,00	1333,25
593,00	1332,78
594,00	1328,02
595,00	1330,33
596,00	1335,97
597,00	1333,18
598,00	1322,68
599,00	1332,04
600,00	1330,35
601,00	1739,89
602,00	1360,46
603,00	1332,78
604,00	1330,98
605,00	1332,09
606,00	1331,01
607,00	1329,17
608,00	1331,94
609,00	1332,98
610,00	1330,24
611,00	1324,83
612,00	1334,85
613,00	1327,85
614,00	1336,31
615,00	1331,33
616,00	1334,14
617,00	1342,84
618,00	1334,54
619,00	1323,96
620,00	1328,74
621,00	1332,99
622,00	1326,15
623,00	1332,09
624,00	1324,72
625,00	1353,76
626,00	1326,44
627,00	1340,04
628,00	1328,74
629,00	1335,94
630,00	1329,01
631,00	1325,97
632,00	1333,97
633,00	1325,90
634,00	1331,54
635,00	1341,54
636,00	1332,98
637,00	1329,73
638,00	1326,41
639,00	1330,73
640,00	1333,01
641,00	1330,76
642,00	1329,91
643,00	1330,02
644,00	1326,24
645,00	1330,02
646,00	1324,82
647,00	1327,34
648,00	1326,02
649,00	1329,28
650,00	1329,59
651,00	1328,74
652,00	1334,50
653,00	1329,52
654,00	1328,76
655,00	1326,58
656,00	1336,82
657,00	1331,70
658,00	1337,65
659,00	1336,51
660,00	1377,52
661,00	1340,82
662,00	1332,49
663,00	1334,55
664,00	1336,73
665,00	1330,40
666,00	1341,81
667,00	1326,62
668,00	1325,20
669,00	1337,59
670,00	1333,74
671,00	1331,36
672,00	1327,18
673,00	1339,80
674,00	1333,10
675,00	1327,09
676,00	1342,46
677,00	1330,63
678,00	1328,15
679,00	1330,20
680,00	1328,60
681,00	1327,78
682,00	1334,07
683,00	1327,92
684,00	1328,22
685,00	1330,83
686,00	1331,02
687,00	1338,51
688,00	1325,66
689,00	1345,98
690,00	1344,01
691,00	1330,23
692,00	1329,06
693,00	1329,02
694,00	1325,34
695,00	1341,99
696,00	1333,32
697,00	1329,35
698,00	1336,20
699,00	1371,30
700,00	1331,87
701,00	1344,91
702,00	1341,59
703,00	1329,84
704,00	1341,82
705,00	1332,12
706,00	1338,29
707,00	1332,44
708,00	1339,32
709,00	1330,44
710,00	1327,83
711,00	1337,91
712,00	1331,35
713,00	1328,82
714,00	1331,83
715,00	1329,57
716,00	1335,24
717,00	1333,74
718,00	1328,79
719,00	1327,27
720,00	1341,17
721,00	1338,02
722,00	1332,66
723,00	1357,78
724,00	1336,14
725,00	1338,50
726,00	1334,57
727,00	1330,48
728,00	1333,16
729,00	1355,23
730,00	1330,00
731,00	1335,24
732,00	1333,68
733,00	1327,77
734,00	1344,65
735,00	1335,70
736,00	1328,83
737,00	1328,98
738,00	1330,49
739,00	1332,58
740,00	1335,72
741,00	1343,31
742,00	1362,32
743,00	1337,85
744,00	1336,32
745,00	1331,07
746,00	1336,96
747,00	1338,05
748,00	1349,42
749,00	1356,92
750,00	1377,45
751,00	1473,69
752,00	1694,75
753,00	1793,92
754,00	2295,66
755,00	2458,00
756,00	2082,71
757,00	1969,02
758,00	2132,66
759,00	1776,15
760,00	1620,28
761,00	1539,96
762,00	1451,48
763,00	1403,50
764,00	1365,22
765,00	1360,02
766,00	1341,93
767,00	1346,88
768,00	1333,99
769,00	1332,19
770,00	1337,40
771,00	1333,30
772,00	1336,44
773,00	1336,52
774,00	1335,80
775,00	1341,91
776,00	1329,52
777,00	1332,27
778,00	1333,29
779,00	1331,42
780,00	1334,65
781,00	1328,36
782,00	1341,77
783,00	1334,22
784,00	1341,53
785,00	1351,54
786,00	1335,11
787,00	1335,81
788,00	1335,70
789,00	1334,33
790,00	1332,67
791,00	1331,99
792,00	1333,16
793,00	1333,37
794,00	1333,76
795,00	1333,32
796,00	1336,87
797,00	1333,96
798,00	1338,12
799,00	1332,30
800,00	1339,78
801,00	1341,65
802,00	1355,28
803,00	1343,48
804,00	1336,96
805,00	1329,11
806,00	1335,64
807,00	1329,35
808,00	1326,75
809,00	1326,47
810,00	1334,16
811,00	1327,87
812,00	1339,15
813,00	1333,43
814,00	1338,61
815,00	1334,33
816,00	1341,13
817,00	1335,28
818,00	1329,92
819,00	1339,56
820,00	1329,25
821,00	1342,64
822,00	1332,01
823,00	1329,01
824,00	1332,24
825,00	1331,80
826,00	1328,08
827,00	1340,34
828,00	1337,22
829,00	1362,84
830,00	1373,75
831,00	1371,60
832,00	1363,35
833,00	1380,00
834,00	1366,52
835,00	1345,97
836,00	1349,26
837,00	1343,57
838,00	1334,00
839,00	1333,45
840,00	1330,05
841,00	1729,81
842,00	1358,68
843,00	1347,23
844,00	1337,19
845,00	1346,06
846,00	1337,23
847,00	1331,91
848,00	1333,94
849,00	1333,04
850,00	1333,78
851,00	1328,12
852,00	1324,13
853,00	1337,07
854,00	1327,67
855,00	1327,32
856,00	1328,33
857,00	1336,75
858,00	1331,28
859,00	1342,49
860,00	1341,88
861,00	1331,55
862,00	1331,19
863,00	1328,68
864,00	1336,23
865,00	1331,35
866,00	1344,24
867,00	1343,01
868,00	1334,63
869,00	1345,63
870,00	1337,17
871,00	1342,01
872,00	1335,80
873,00	1329,52
874,00	1329,32
875,00	1332,99
876,00	1332,05
877,00	1324,41
878,00	1331,18
879,00	1337,96
880,00	1334,99
881,00	1327,06
882,00	1342,50
883,00	1329,37
884,00	1327,75
885,00	1332,73
886,00	1331,51
887,00	1334,15
888,00	1329,75
889,00	1327,54
890,00	1340,42
891,00	1348,55
892,00	1334,48
893,00	1327,04
894,00	1324,13
895,00	1327,42
896,00	1331,07
897,00	1324,60
898,00	1335,56
899,00	1328,95
900,00	1336,60
901,00	1328,58
902,00	1326,25
903,00	1335,75
904,00	1335,38
905,00	1343,65
906,00	1358,86
907,00	1350,04
908,00	1351,37
909,00	1355,42
910,00	1346,71
911,00	1344,40
912,00	1343,33
913,00	1337,97
914,00	1332,26
915,00	1333,04
916,00	1341,43
917,00	1329,51
918,00	1326,15
919,00	1326,95
920,00	1328,26
921,00	1330,03
922,00	1335,00
923,00	1337,09
924,00	1332,98
925,00	1331,61
926,00	1333,33
927,00	1333,23
928,00	1332,58
929,00	1333,40
930,00	1331,49
931,00	1338,15
932,00	1327,82
933,00	1342,30
934,00	1327,71
935,00	1340,89
936,00	1332,61
937,00	1329,58
938,00	1327,20
939,00	1343,24
940,00	1327,00
941,00	1325,46
942,00	1331,59
943,00	1330,55
944,00	1359,21
945,00	1341,58
946,00	1336,40
947,00	1342,14
948,00	1349,47
949,00	1342,38
950,00	1348,13
951,00	1337,43
952,00	1331,36
953,00	1328,19
954,00	1328,93
955,00	1337,56
956,00	1327,64
957,00	1326,27
958,00	1329,49
959,00	1333,42
960,00	1325,04
961,00	1338,32
962,00	1330,28
963,00	1334,70
964,00	1364,58
965,00	1332,40
966,00	1337,69
967,00	1337,48
968,00	1328,06
969,00	1352,82
970,00	1332,55
971,00	1337,11
972,00	1331,23
973,00	1336,24
974,00	1329,37
975,00	1331,25
976,00	1325,18
977,00	1337,65
978,00	1332,48
979,00	1329,97
980,00	1328,02
981,00	1334,93
982,00	1327,21
983,00	1326,62
984,00	1331,01
985,00	1339,56
986,00	1342,16
987,00	1348,55
988,00	1365,25
989,00	1341,48
990,00	1338,19
991,00	1338,44
992,00	1338,51
993,00	1329,98
994,00	1329,49
995,00	1334,24
996,00	1326,76
997,00	1336,76
998,00	1331,72
999,00	1347,25
1000,00	1326,24
1001,00	1334,66
1002,00	1327,19
1003,00	1325,96
1004,00	1341,39
1005,00	1326,46
1006,00	1327,61
1007,00	1334,90
1008,00	1329,44
1009,00	1327,07
1010,00	1328,89
1011,00	1326,74
1012,00	1338,86
1013,00	1325,53
1014,00	1328,06
1015,00	1333,45
1016,00	1334,12
1017,00	1327,04
1018,00	1338,87
1019,00	1335,64
1020,00	1328,95
1021,00	1329,37
1022,00	1332,95
1023,00	1328,51
1024,00	1337,52
1025,00	1329,39
1026,00	1342,18
1027,00	1342,25
1028,00	1349,94
1029,00	1340,38
1030,00	1339,58
1031,00	1334,80
1032,00	1332,28
1033,00	1340,62
1034,00	1333,79
1035,00	1341,28
1036,00	1335,20
1037,00	1334,26
1038,00	1331,82
1039,00	1326,18
1040,00	1331,69
1041,00	1331,09
1042,00	1339,90
1043,00	1337,07
1044,00	1380,10
1045,00	1338,61
1046,00	1328,96
1047,00	1327,58
1048,00	1334,56
1049,00	1331,66
1050,00	1334,47
1051,00	1331,71
1052,00	1334,04
1053,00	1334,78
1054,00	1327,15
1055,00	1336,27
1056,00	1339,09
1057,00	1329,58
1058,00	1330,35
1059,00	1333,39
1060,00	1330,43
1061,00	1330,53
1062,00	1327,32
1063,00	1323,39
1064,00	1339,41
1065,00	1330,77
1066,00	1324,51
1067,00	1335,31
1068,00	1334,31
1069,00	1340,02
1070,00	1341,00
1071,00	1345,05
1072,00	1340,44
1073,00	1337,49
1074,00	1332,30
1075,00	1346,39
1076,00	1330,74
1077,00	1331,19
1078,00	1333,01
1079,00	1327,29
1080,00	1348,28
1081,00	1338,69
1082,00	1328,41
1083,00	1336,46
1084,00	1331,16
1085,00	1340,21
1086,00	1325,66
1087,00	1337,94
1088,00	1334,37
1089,00	1330,49
1090,00	1328,10
1091,00	1339,76
1092,00	1342,36
1093,00	1355,76
1094,00	1334,48
1095,00	1332,35
1096,00	1330,81
1097,00	1335,24
1098,00	1325,20
1099,00	1341,47
1100,00	1327,75
1101,00	1332,02
1102,00	1330,23
1103,00	1341,41
1104,00	1337,37
1105,00	1349,18
1106,00	1331,86
1107,00	1335,14
1108,00	1334,33
1109,00	1328,16
1110,00	1328,34
1111,00	1354,93
1112,00	1350,31
1113,00	1339,43
1114,00	1338,03
1115,00	1338,65
1116,00	1348,36
1117,00	1335,48
1118,00	1335,15
1119,00	1337,40
1120,00	1343,43
1121,00	1373,16
1122,00	1333,89
1123,00	1330,54
1124,00	1339,88
1125,00	1326,89
1126,00	1331,53
1127,00	1332,54
1128,00	1357,21
1129,00	1328,19
1130,00	1326,25
1131,00	1336,89
1132,00	1331,17
1133,00	1335,64
1134,00	1348,70
1135,00	1338,11
1136,00	1343,28
1137,00	1338,83
1138,00	1331,36
1139,00	1332,75
1140,00	1330,88
1141,00	1329,65
1142,00	1328,25
1143,00	1331,22
1144,00	1341,06
1145,00	1348,50
1146,00	1332,38
1147,00	1336,60
1148,00	1327,96
1149,00	1327,18
1150,00	1332,51
1151,00	1338,70
1152,00	1336,89
1153,00	1329,23
1154,00	1335,58
1155,00	1328,65
1156,00	1338,22
1157,00	1334,11
1158,00	1339,27
1159,00	1330,25
1160,00	1331,44
1161,00	1339,13
1162,00	1338,55
1163,00	1331,39
1164,00	1326,58
1165,00	1341,95
1166,00	1345,77
1167,00	1332,86
1168,00	1335,40
1169,00	1330,10
1170,00	1331,74
1171,00	1344,83
1172,00	1329,84
1173,00	1334,61
1174,00	1332,15
1175,00	1328,41
1176,00	1328,68
1177,00	1336,11
1178,00	1350,33
1179,00	1340,18
1180,00	1331,06
1181,00	1335,31
1182,00	1332,52
1183,00	1336,02
1184,00	1329,01
1185,00	1332,55
1186,00	1336,78
1187,00	1334,52
1188,00	1338,09
1189,00	1326,16
1190,00	1329,77
1191,00	1335,82
1192,00	1343,65
1193,00	1329,61
1194,00	1331,87
1195,00	1335,91
1196,00	1340,65
1197,00	1329,54
1198,00	1342,51
1199,00	1340,10
1200,00	1335,62
1201,00	1331,36
1202,00	1346,55
1203,00	1343,66
1204,00	1335,52
1205,00	1346,21
1206,00	1340,56
1207,00	1345,26
1208,00	1342,32
1209,00	1329,87
1210,00	1332,05
1211,00	1338,71
1212,00	1330,36
1213,00	1327,52
1214,00	1326,14
1215,00	1332,90
1216,00	1323,60
1217,00	1335,54
1218,00	1328,82
1219,00	1332,40
1220,00	1330,37
1221,00	1346,43
1222,00	1339,03
1223,00	1328,37
1224,00	1331,28
1225,00	1328,47
1226,00	1328,94
1227,00	1333,46
1228,00	1327,38
1229,00	1329,83
1230,00	1328,59
1231,00	1330,59
1232,00	1327,13
1233,00	1327,95
1234,00	1333,24
1235,00	1327,66
1236,00	1337,55
1237,00	1332,79
1238,00	1332,70
1239,00	1332,68
1240,00	1326,13
1241,00	1336,35
1242,00	1332,25
1243,00	1338,01
1244,00	1325,11
1245,00	1330,76
1246,00	1333,37
1247,00	1339,28
1248,00	1336,78
1249,00	1336,59
1250,00	1331,57
1251,00	1336,40
1252,00	1334,34
1253,00	1340,65
1254,00	1330,21
1255,00	1337,25
1256,00	1331,57
1257,00	1333,48
1258,00	1327,35
1259,00	1324,70
1260,00	1337,50
1261,00	1332,67
1262,00	1328,70
1263,00	1329,01
1264,00	1335,28
1265,00	1328,61
1266,00	1352,60
1267,00	1332,76
1268,00	1327,88
1269,00	1331,97
1270,00	1338,36
1271,00	1328,34
1272,00	1331,68
1273,00	1335,37
1274,00	1330,28
1275,00	1327,99
1276,00	1351,96
1277,00	1415,12
1278,00	1346,67
1279,00	1335,21
1280,00	1331,17
1281,00	1329,39
1282,00	1328,90
1283,00	1327,39
1284,00	1329,78
1285,00	1354,33
1286,00	1328,02
1287,00	1333,14
1288,00	1332,58
1289,00	1352,99
1290,00	1330,69
1291,00	1330,43
1292,00	1335,47
1293,00	1328,84
1294,00	1326,97
1295,00	1329,53
1296,00	1349,11
1297,00	1340,02
1298,00	1341,59
1299,00	1332,38
1300,00	1345,74
1301,00	1348,54
1302,00	1353,87
1303,00	1336,14
1304,00	1351,53
1305,00	1340,36
1306,00	1335,37
1307,00	1335,13
1308,00	1339,61
1309,00	1329,39
1310,00	1328,75
1311,00	1331,72
1312,00	1330,01
1313,00	1328,99
1314,00	1332,41
1315,00	1345,76
1316,00	1325,61
1317,00	1325,27
1318,00	1332,47
1319,00	1335,10
1320,00	1331,07
1321,00	1336,68
1322,00	1396,03
1323,00	1328,85
1324,00	1328,73
1325,00	1329,33
1326,00	1327,22
1327,00	1324,62
1328,00	1334,25
1329,00	1326,82
1330,00	1331,80
1331,00	1334,14
1332,00	1327,51
1333,00	1330,25
1334,00	1325,67
1335,00	1338,24
1336,00	1337,60
1337,00	1339,22
1338,00	1332,42
1339,00	1326,09
1340,00	1331,99
1341,00	1335,42
1342,00	1332,90
1343,00	1343,62
1344,00	1333,64
1345,00	1324,89
1346,00	1328,38
1347,00	1332,58
1348,00	1333,18
1349,00	1324,54
1350,00	1349,67
1351,00	1345,24
1352,00	1333,97
1353,00	1331,45
1354,00	1367,19
1355,00	1328,81
1356,00	1325,33
1357,00	1324,90
1358,00	1334,61
1359,00	1337,94
1360,00	1331,71
1361,00	1327,71
1362,00	1328,02
1363,00	1330,54
1364,00	1334,83
1365,00	1343,55
1366,00	1327,40
1367,00	1324,87
1368,00	1329,33
1369,00	1328,34
1370,00	1335,30
1371,00	1329,23
1372,00	1325,35
1373,00	1346,58
1374,00	1329,32
1375,00	1332,49
1376,00	1335,72
1377,00	1336,85
1378,00	1342,62
1379,00	1334,73
1380,00	1362,80
1381,00	1330,10
1382,00	1325,86
1383,00	1347,45
1384,00	1330,37
1385,00	1336,43
1386,00	1342,06
1387,00	1342,91
1388,00	1331,43
1389,00	1339,57
1390,00	1327,39
1391,00	1327,97
1392,00	1346,19
1393,00	1337,26
1394,00	1331,48
1395,00	1328,56
1396,00	1345,18
1397,00	1334,26
1398,00	1365,52
1399,00	1389,83
1400,00	1347,11
1401,00	1349,64
1402,00	1389,16
1403,00	1341,25
1404,00	1331,90
1405,00	1330,74
1406,00	1332,94
1407,00	1331,40
1408,00	1334,11
1409,00	1329,25
1410,00	1327,66
1411,00	1517,89
1412,00	1344,32
1413,00	1326,95
1414,00	1325,15
1415,00	1326,85
1416,00	1323,00
1417,00	1325,16
1418,00	1333,73
1419,00	1335,95
1420,00	1325,91
1421,00	1327,56
1422,00	1323,26
1423,00	1322,76
1424,00	1331,03
1425,00	1324,03
1426,00	1333,70
1427,00	1332,87
1428,00	1324,36
1429,00	1329,96
1430,00	1323,70
1431,00	1325,70
1432,00	1333,30
1433,00	1328,39
1434,00	1334,66
1435,00	1334,11
1436,00	1329,47
1437,00	1341,22
1438,00	1328,66
1439,00	1328,67
1440,00	1328,88
1441,00	1328,42
1442,00	1325,43
1443,00	1324,78
1444,00	1325,68
1445,00	1324,49
1446,00	1335,14
1447,00	1329,33
1448,00	1335,85
1449,00	1332,46
1450,00	1331,71
1451,00	1328,36
1452,00	1342,63
1453,00	1330,26
1454,00	1339,07
1455,00	1340,53
1456,00	1327,37
1457,00	1341,30
1458,00	1337,93
1459,00	1328,85
1460,00	1327,70
1461,00	1332,47
1462,00	1329,17
1463,00	1333,31
1464,00	1329,34
1465,00	1329,47
1466,00	1326,77
1467,00	1335,48
1468,00	1328,26
1469,00	1326,38
1470,00	1329,55
1471,00	1334,48
1472,00	1328,35
1473,00	1326,29
1474,00	1330,98
1475,00	1326,01
1476,00	1351,67
1477,00	1337,92
1478,00	1385,66
1479,00	1350,08
1480,00	1333,97
1481,00	1327,42
1482,00	1328,42
1483,00	1328,89
1484,00	1339,78
1485,00	1338,78
1486,00	1328,60
1487,00	1336,59
1488,00	1336,95
1489,00	1335,34
1490,00	1334,56
1491,00	1333,63
1492,00	1328,74
1493,00	1326,41
1494,00	1325,92
1495,00	1335,42
1496,00	1327,15
1497,00	1342,91
1498,00	1339,80
1499,00	1334,78
1500,00	1332,37
1501,00	1334,42
1502,00	1330,02
1503,00	1352,44
1504,00	1332,75
1505,00	1343,21
1506,00	1329,77
1507,00	1327,36
1508,00	1336,07
1509,00	1330,10
1510,00	1324,96
1511,00	1336,99
1512,00	1330,29
1513,00	1330,94
1514,00	1330,12
1515,00	1332,74
1516,00	1394,35
1517,00	1348,17
1518,00	1330,49
1519,00	1331,63
1520,00	1334,48
1521,00	1328,28
1522,00	1334,10
1523,00	1329,79
1524,00	1329,00
1525,00	1325,32
1526,00	1327,91
1527,00	1325,05
1528,00	1333,23
1529,00	1323,09
1530,00	1325,11
1531,00	1329,54
1532,00	1328,27
1533,00	1323,14
1534,00	1329,73
1535,00	1323,31
1536,00	1331,82
1537,00	1336,97
1538,00	1335,93
1539,00	1338,29
1540,00	1334,00
1541,00	1332,04
1542,00	1327,08
1543,00	1328,72
1544,00	1338,12
1545,00	1331,64
1546,00	1328,23
1547,00	1332,59
1548,00	1329,20
1549,00	1327,25
1550,00	1328,55
1551,00	1329,96
1552,00	1327,10
1553,00	1324,07
1554,00	1325,46
1555,00	1324,54
1556,00	1326,81
1557,00	1335,19
1558,00	1331,19
1559,00	1327,39
1560,00	1328,86
1561,00	1328,02
1562,00	1340,31
1563,00	1330,69
1564,00	1327,93
1565,00	1330,88
1566,00	1332,39
1567,00	1338,65
1568,00	1331,69
1569,00	1331,63
1570,00	1330,90
1571,00	1334,76
1572,00	1337,71
1573,00	1333,27
1574,00	1343,24
1575,00	1327,55
1576,00	1325,57
1577,00	1325,98
1578,00	1336,06
1579,00	1329,72
1580,00	1325,78
1581,00	1329,02
1582,00	1323,95
1583,00	1345,10
1584,00	1331,42
1585,00	1324,31
1586,00	1331,96
1587,00	1334,50
1588,00	1337,32
1589,00	1329,13
1590,00	1333,06
1591,00	1329,89
1592,00	1346,75
1593,00	1325,57
1594,00	1330,80
1595,00	1326,48
1596,00	1327,79
1597,00	1326,19
1598,00	1327,23
1599,00	1329,89
1600,00	1322,87
1601,00	1334,38
1602,00	1339,22
1603,00	1334,06
1604,00	1327,59
1605,00	1344,24
1606,00	1325,87
1607,00	1327,75
1608,00	1326,44
1609,00	1328,55
1610,00	1323,85
1611,00	1338,32
1612,00	1327,52
1613,00	1333,91
1614,00	1327,70
1615,00	1328,47
1616,00	1337,10
1617,00	1333,95
1618,00	1335,42
1619,00	1330,75
1620,00	1340,05
1621,00	1334,73
1622,00	1331,82
1623,00	1340,57
1624,00	1337,42
1625,00	1330,86
1626,00	1348,23
1627,00	1332,33
1628,00	1330,94
1629,00	1391,69
1630,00	1337,09
1631,00	1328,02
1632,00	1333,72
1633,00	1328,95
1634,00	1331,67
1635,00	1328,97
1636,00	1329,24
1637,00	1328,69
1638,00	1326,25
1639,00	1325,00
1640,00	1332,01
1641,00	1340,56
1642,00	1339,48
1643,00	1327,23
1644,00	1348,99
1645,00	1335,04
1646,00	1328,61
1647,00	1337,73
1648,00	1331,60
1649,00	1329,95
1650,00	1350,76
1651,00	1340,57
1652,00	1326,24
1653,00	1329,07
1654,00	1329,50
1655,00	1328,62
1656,00	1326,64
1657,00	1342,46
1658,00	1328,12
1659,00	1336,72
1660,00	1335,53
1661,00	1336,89
1662,00	1332,23
1663,00	1336,41
1664,00	1334,22
1665,00	1327,58
1666,00	1331,66
1667,00	1345,90
1668,00	1326,07
1669,00	1327,30
1670,00	1335,86
1671,00	1326,69
1672,00	1324,94
1673,00	1335,72
1674,00	1335,56
1675,00	1333,41
1676,00	1334,33
1677,00	1332,55
1678,00	1334,86
1679,00	1332,53
1680,00	1334,11
1681,00	1335,50
1682,00	1352,82
1683,00	1334,79
1684,00	1340,19
1685,00	1336,22
1686,00	1324,92
1687,00	1324,50
1688,00	1336,95
1689,00	1325,72
1690,00	1326,68
1691,00	1325,94
1692,00	1326,89
1693,00	1341,08
1694,00	1326,85
1695,00	1330,43
1696,00	1330,30
1697,00	1330,51
1698,00	1326,78
1699,00	1332,69
1700,00	1332,98
1701,00	1339,06
1702,00	1327,06
1703,00	1325,15
1704,00	1326,88
1705,00	1333,85
1706,00	1327,20
1707,00	1327,03
1708,00	1325,95
1709,00	1336,78
1710,00	1330,85
1711,00	1325,18
1712,00	1330,48
1713,00	1346,28
1714,00	1334,51
1715,00	1330,37
1716,00	1342,08
1717,00	1330,71
1718,00	1344,87
1719,00	1338,29
1720,00	1326,85
1721,00	1333,56
1722,00	1327,12
1723,00	1336,70
1724,00	1328,65
1725,00	1332,33
1726,00	1331,77
1727,00	1326,07
1728,00	1341,66
1729,00	1324,89
1730,00	1348,04
1731,00	1335,88
1732,00	1350,06
1733,00	1335,53
1734,00	1325,29
1735,00	1330,35
1736,00	1328,17
1737,00	1324,17
1738,00	1329,77
1739,00	1337,92
1740,00	1336,03
1741,00	1350,39
1742,00	1334,77
1743,00	1328,77
1744,00	1328,02
1745,00	1328,01
1746,00	1328,03
1747,00	1330,72
1748,00	1334,85
1749,00	1346,65
1750,00	1337,17
1751,00	1353,63
1752,00	1329,61
1753,00	1325,89
1754,00	1328,92
1755,00	1332,31
1756,00	1329,13
1757,00	1342,11
1758,00	1329,22
1759,00	1326,27
1760,00	1327,87
1761,00	1334,46
1762,00	1332,50
1763,00	1325,18
1764,00	1335,95
1765,00	1327,66
1766,00	1326,21
1767,00	1326,12
1768,00	1327,58
1769,00	1334,37
1770,00	1324,13
1771,00	1328,39
1772,00	1349,06
1773,00	1327,65
1774,00	1323,52
1775,00	1328,45
1776,00	1330,23
1777,00	1323,07
1778,00	1326,49
1779,00	1325,22
1780,00	1325,62
1781,00	1325,37
1782,00	1325,86
1783,00	1331,27
1784,00	1331,56
1785,00	1330,39
1786,00	1334,86
1787,00	1326,40
1788,00	1333,73
1789,00	1332,96
1790,00	1340,24
1791,00	1326,71
1792,00	1332,85
1793,00	1328,10
1794,00	1324,90
1795,00	1326,77
1796,00	1326,64
1797,00	1324,30
1798,00	1330,03
1799,00	1326,53
1800,00	1336,33
1801,00	1332,27
1802,00	1340,10
1803,00	1331,35
1804,00	1334,11
1805,00	1331,61
1806,00	1334,28
1807,00	1331,30
1808,00	1325,23
1809,00	1329,68
1810,00	1335,94
1811,00	1331,34
1812,00	1327,20
1813,00	1328,61
1814,00	1330,83
1815,00	1333,96
1816,00	1355,39
1817,00	1329,86
1818,00	1376,71
1819,00	1342,31
1820,00	1338,13
1821,00	1326,37
1822,00	1323,72
1823,00	1325,90
1824,00	1331,28
1825,00	1346,65
1826,00	1327,52
1827,00	1342,85
1828,00	1349,41
1829,00	1331,02
1830,00	1337,02
1831,00	1325,28
1832,00	1322,85
1833,00	1322,03
1834,00	1325,88
1835,00	1330,37
1836,00	1325,19
1837,00	1326,00
1838,00	1331,27
1839,00	1341,15
1840,00	1352,66
1841,00	1335,17
1842,00	1335,88
1843,00	1335,69
1844,00	1347,88
1845,00	1335,93
1846,00	1325,17
1847,00	1328,29
1848,00	1332,99
1849,00	1330,47
1850,00	1332,22
1851,00	1336,65
1852,00	1326,44
1853,00	1326,45
1854,00	1326,91
1855,00	1325,46
1856,00	1324,69
1857,00	1327,96
1858,00	1345,65
1859,00	1324,83
1860,00	1331,16
1861,00	1370,21
1862,00	1330,86
1863,00	1329,59
1864,00	1325,69
1865,00	1330,37
1866,00	1336,45
1867,00	1327,14
1868,00	1332,51
1869,00	1324,98
1870,00	1328,19
1871,00	1324,92
1872,00	1330,11
1873,00	1330,17
1874,00	1332,61
1875,00	1328,80
1876,00	1324,85
1877,00	1329,93
1878,00	1340,67
1879,00	1337,03
1880,00	1322,47
1881,00	1331,02
1882,00	1328,63
1883,00	1327,55
1884,00	1325,87
1885,00	1331,18
1886,00	1331,25
1887,00	1323,97
1888,00	1325,98
1889,00	1332,42
1890,00	1324,70
1891,00	1335,72
1892,00	1342,11
1893,00	1329,27
1894,00	1335,80
1895,00	1331,79
1896,00	1337,92
1897,00	1354,91
1898,00	1327,94
1899,00	1331,55
1900,00	1328,39
1901,00	1331,87
1902,00	1330,36
1903,00	1342,84
1904,00	1333,76
1905,00	1374,74
1906,00	1328,06
1907,00	1326,62
1908,00	1368,49
1909,00	1329,57
1910,00	1327,31
1911,00	1331,23
1912,00	1334,57
1913,00	1343,45
1914,00	1329,00
1915,00	1328,43
1916,00	1333,26
1917,00	1331,76
1918,00	1329,04
1919,00	1330,30
1920,00	1324,99
1921,00	1338,63
1922,00	1329,76
1923,00	1329,85
1924,00	1332,90
1925,00	1326,62
1926,00	1330,47
1927,00	1336,12
1928,00	1341,35
1929,00	1336,36
1930,00	1327,49
1931,00	1335,84
1932,00	1352,84
1933,00	1332,55
1934,00	1326,25
1935,00	1328,28
1936,00	1330,24
1937,00	1324,29
1938,00	1329,99
1939,00	1327,34
1940,00	1348,94
1941,00	1327,33
1942,00	1328,40
1943,00	1329,03
1944,00	1330,81
1945,00	1326,53
1946,00	1322,89
1947,00	1324,97
1948,00	1349,91
1949,00	1327,10
1950,00	1334,73
1951,00	1326,61
1952,00	1328,01
1953,00	1324,93
1954,00	1335,54
1955,00	1327,65
1956,00	1328,35
1957,00	1332,47
1958,00	1324,11
1959,00	1328,93
1960,00	1324,10
1961,00	1337,37
1962,00	1323,86
1963,00	1334,30
1964,00	1325,38
1965,00	1332,98
1966,00	1324,89
1967,00	1336,98
1968,00	1325,32
1969,00	1322,58
1970,00	1330,11
1971,00	1336,83
1972,00	1329,65
1973,00	1334,74
1974,00	1332,02
1975,00	1333,58
1976,00	1332,38
1977,00	1332,26
1978,00	1329,85
1979,00	1331,82
1980,00	1374,28
1981,00	1332,85
1982,00	1325,87
1983,00	1328,88
1984,00	1330,07
1985,00	1343,30
1986,00	1325,23
1987,00	1325,61
1988,00	1325,09
1989,00	1330,07
1990,00	1344,29
1991,00	1334,48
1992,00	1335,35
1993,00	1357,31
1994,00	1334,10
1995,00	1324,36
1996,00	1331,56
1997,00	1329,93
1998,00	1333,84
1999,00	1323,92
2000,00	1322,28
2001,00	1327,81
2002,00	1340,79
2003,00	1322,55
2004,00	1333,95
2005,00	1324,18
2006,00	1344,03
2007,00	1327,15
2008,00	1322,14
2009,00	1342,66
2010,00	1325,59
2011,00	1324,06
2012,00	1328,08
2013,00	1327,69
2014,00	1329,94
2015,00	1325,60
2016,00	1325,87
2017,00	1326,97
2018,00	1330,04
2019,00	1324,63
2020,00	1324,17
2021,00	1333,65
2022,00	1330,72
2023,00	1329,62
2024,00	1326,71
2025,00	1339,36
2026,00	1327,49
2027,00	1324,48
2028,00	1334,76
2029,00	1325,43
2030,00	1324,35
2031,00	1326,34
2032,00	1325,53
2033,00	1330,44
2034,00	1341,55
2035,00	1332,28
2036,00	1332,72
2037,00	1327,26
2038,00	1329,16
2039,00	1330,14
2040,00	1332,61
2041,00	1330,85
2042,00	1324,33
2043,00	1328,02
2044,00	1333,47
2045,00	1325,60
2046,00	1325,60
2047,00	1325,60
>>>>>End Processed Spectral Data<<<<<
