SpectraSuite Datei
++++++++++++++++++++++++++++++++++++
Datum: Thu Sep 19 12:59:13 CEST 2024
Benutzer: Student
Dark-Spektrum vorhanden: Nein
Referenz-Spektrum vorhanden: Nein
Zahl der probierten Teilspektren: 1
Spektrometer: USB2+H15728
Integrationszeit (usec): 100000 (USB2+H15728)
Spektren Durchschnitt berechnet: 500 (USB2+H15728)
Boxcar Glättung: 0 (USB2+H15728)
Dunkelstromkorrektur: Nein (USB2+H15728)
Puls/Lampe aktiviert: Nein (USB2+H15728)
Correct for Detector Non-linearity: Nein (USB2+H15728)
Streulichtkorrektur: Nein (USB2+H15728)
Anzahl Pixel in verarbeitetem Spektrum: 2048
>>>>>Begin Processed Spectral Data<<<<<
0,00	873,77
1,00	873,77
2,00	873,77
3,00	842,71
4,00	853,53
5,00	852,87
6,00	853,96
7,00	865,02
8,00	880,70
9,00	884,48
10,00	897,54
11,00	919,60
12,00	926,96
13,00	970,57
14,00	952,97
15,00	980,91
16,00	993,62
17,00	1020,31
18,00	1026,49
19,00	1058,77
20,00	1054,33
21,00	1073,18
22,00	1090,98
23,00	1109,85
24,00	1112,10
25,00	1128,63
26,00	1140,09
27,00	1162,98
28,00	1162,53
29,00	1167,81
30,00	1182,75
31,00	1184,55
32,00	1209,06
33,00	1197,48
34,00	1205,97
35,00	1208,38
36,00	1208,90
37,00	1203,31
38,00	1213,62
39,00	1229,25
40,00	1209,46
41,00	1227,43
42,00	1213,25
43,00	1220,77
44,00	1211,43
45,00	1209,84
46,00	1204,08
47,00	1213,75
48,00	1205,52
49,00	1220,18
50,00	1203,07
51,00	1208,22
52,00	1198,52
53,00	1215,43
54,00	1198,61
55,00	1193,89
56,00	1203,75
57,00	1194,41
58,00	1191,47
59,00	1191,78
60,00	1179,21
61,00	1186,20
62,00	1181,98
63,00	1180,02
64,00	1181,98
65,00	1178,43
66,00	1179,56
67,00	1175,79
68,00	1176,84
69,00	1175,12
70,00	1238,29
71,00	1183,32
72,00	1176,88
73,00	1178,95
74,00	1177,09
75,00	1177,96
76,00	1177,12
77,00	1184,50
78,00	1180,35
79,00	1179,55
80,00	1181,34
81,00	1175,11
82,00	1185,48
83,00	1174,74
84,00	1203,05
85,00	1186,75
86,00	1208,20
87,00	1200,69
88,00	1180,07
89,00	1179,14
90,00	1180,42
91,00	1195,25
92,00	1185,06
93,00	1188,81
94,00	1183,64
95,00	1181,80
96,00	1181,73
97,00	1234,28
98,00	1182,19
99,00	1179,71
100,00	1191,38
101,00	1193,78
102,00	1182,89
103,00	1183,70
104,00	1182,79
105,00	1196,33
106,00	1190,67
107,00	1192,55
108,00	1193,35
109,00	1186,08
110,00	1208,15
111,00	1195,50
112,00	1186,47
113,00	1196,17
114,00	1188,40
115,00	1186,32
116,00	1188,36
117,00	1183,29
118,00	1186,09
119,00	1212,37
120,00	1187,81
121,00	1185,21
122,00	1194,00
123,00	1186,57
124,00	1186,82
125,00	1187,63
126,00	1191,09
127,00	1194,99
128,00	1189,27
129,00	1193,09
130,00	1189,95
131,00	1194,99
132,00	1185,50
133,00	1200,74
134,00	1192,71
135,00	1189,25
136,00	1187,87
137,00	1198,39
138,00	1209,74
139,00	1195,07
140,00	1195,47
141,00	1206,39
142,00	1192,88
143,00	1187,74
144,00	1193,69
145,00	1186,59
146,00	1191,35
147,00	1208,64
148,00	1244,77
149,00	1205,07
150,00	1187,88
151,00	1198,07
152,00	1189,67
153,00	1188,26
154,00	1192,55
155,00	1187,95
156,00	1201,86
157,00	1191,18
158,00	1195,50
159,00	1201,85
160,00	1200,74
161,00	1205,48
162,00	1188,00
163,00	1190,73
164,00	1189,51
165,00	1191,15
166,00	1191,81
167,00	1197,78
168,00	1188,26
169,00	1191,15
170,00	1194,57
171,00	1186,31
172,00	1202,82
173,00	1185,79
174,00	1192,10
175,00	1194,14
176,00	1191,11
177,00	1193,06
178,00	1200,66
179,00	1193,47
180,00	1197,83
181,00	1191,11
182,00	1192,06
183,00	1216,54
184,00	1193,57
185,00	1192,18
186,00	1192,86
187,00	1194,73
188,00	1208,32
189,00	1193,62
190,00	1189,90
191,00	1191,43
192,00	1200,57
193,00	1193,33
194,00	1196,77
195,00	1200,03
196,00	1202,82
197,00	1198,81
198,00	1218,12
199,00	1192,53
200,00	1191,82
201,00	1202,53
202,00	1198,61
203,00	1199,00
204,00	1197,55
205,00	1198,35
206,00	1195,46
207,00	1197,02
208,00	1197,88
209,00	1200,44
210,00	1202,87
211,00	1206,85
212,00	1195,11
213,00	1203,68
214,00	1204,27
215,00	1199,20
216,00	1198,31
217,00	1199,44
218,00	1208,92
219,00	1194,52
220,00	1216,21
221,00	1203,03
222,00	1208,01
223,00	1197,01
224,00	1198,16
225,00	1189,31
226,00	1200,29
227,00	1194,92
228,00	1196,21
229,00	1202,24
230,00	1194,89
231,00	1206,12
232,00	1203,41
233,00	1200,40
234,00	1199,49
235,00	1201,21
236,00	1217,02
237,00	1200,90
238,00	1195,60
239,00	1196,64
240,00	1204,42
241,00	1207,36
242,00	1195,48
243,00	1207,29
244,00	1201,13
245,00	1195,23
246,00	1197,13
247,00	1202,88
248,00	1206,04
249,00	1212,18
250,00	1208,22
251,00	1202,97
252,00	1205,10
253,00	1204,29
254,00	1207,53
255,00	1191,87
256,00	1202,31
257,00	1201,40
258,00	1199,60
259,00	1201,76
260,00	1196,73
261,00	1199,31
262,00	1196,29
263,00	1193,80
264,00	1202,64
265,00	1199,03
266,00	1197,30
267,00	1200,18
268,00	1205,04
269,00	1203,85
270,00	1203,09
271,00	1207,90
272,00	1205,59
273,00	1200,00
274,00	1201,93
275,00	1202,68
276,00	1199,57
277,00	1203,02
278,00	1201,04
279,00	1206,87
280,00	1200,12
281,00	1204,14
282,00	1196,17
283,00	1206,52
284,00	1202,97
285,00	1204,38
286,00	1207,07
287,00	1203,99
288,00	1196,77
289,00	1202,20
290,00	1208,04
291,00	1197,73
292,00	1208,77
293,00	1202,45
294,00	1207,21
295,00	1204,77
296,00	1195,85
297,00	1200,23
298,00	1202,01
299,00	1202,64
300,00	1202,11
301,00	1207,17
302,00	1201,95
303,00	1207,95
304,00	1199,19
305,00	1210,93
306,00	1202,44
307,00	1197,60
308,00	1201,64
309,00	1204,41
310,00	1203,68
311,00	1198,86
312,00	1201,28
313,00	1216,96
314,00	1208,29
315,00	1202,10
316,00	1204,35
317,00	1199,34
318,00	1200,84
319,00	1203,88
320,00	1203,11
321,00	1202,53
322,00	1196,18
323,00	1215,04
324,00	1205,78
325,00	1209,77
326,00	1198,27
327,00	1203,49
328,00	1207,81
329,00	1209,06
330,00	1203,04
331,00	1202,50
332,00	1201,07
333,00	1211,27
334,00	1204,90
335,00	1205,56
336,00	1206,37
337,00	1202,58
338,00	1214,57
339,00	1200,67
340,00	1200,29
341,00	1203,67
342,00	1198,53
343,00	1214,36
344,00	1225,81
345,00	1203,40
346,00	1197,94
347,00	1211,46
348,00	1197,00
349,00	1215,75
350,00	1204,92
351,00	1201,93
352,00	1222,34
353,00	1210,47
354,00	1196,88
355,00	1202,41
356,00	1202,76
357,00	1213,89
358,00	1202,67
359,00	1203,04
360,00	1207,08
361,00	1203,13
362,00	1214,91
363,00	1210,13
364,00	1215,25
365,00	1204,34
366,00	1206,69
367,00	1201,46
368,00	1202,58
369,00	1200,33
370,00	1199,52
371,00	1198,96
372,00	1217,34
373,00	1202,31
374,00	1206,45
375,00	1204,14
376,00	1200,81
377,00	1269,54
378,00	1205,10
379,00	1201,48
380,00	1200,41
381,00	1222,66
382,00	1210,09
383,00	1204,88
384,00	1201,09
385,00	1199,08
386,00	1208,07
387,00	1204,11
388,00	1208,98
389,00	1213,75
390,00	1207,07
391,00	1205,29
392,00	1200,01
393,00	1204,35
394,00	1205,42
395,00	1205,76
396,00	1209,54
397,00	1204,20
398,00	1208,18
399,00	1205,10
400,00	1211,40
401,00	1204,17
402,00	1205,50
403,00	1202,18
404,00	1205,73
405,00	1211,10
406,00	1201,75
407,00	1214,67
408,00	1204,51
409,00	1214,65
410,00	1209,38
411,00	1202,72
412,00	1203,65
413,00	1201,32
414,00	1222,25
415,00	1211,77
416,00	1217,30
417,00	1201,34
418,00	1201,47
419,00	1204,94
420,00	1211,00
421,00	1205,46
422,00	1210,34
423,00	1199,52
424,00	1199,48
425,00	1200,43
426,00	1201,63
427,00	1205,03
428,00	1203,86
429,00	1202,98
430,00	1200,56
431,00	1206,78
432,00	1200,80
433,00	1199,92
434,00	1212,63
435,00	1208,69
436,00	1220,72
437,00	1208,26
438,00	1202,01
439,00	1204,07
440,00	1207,81
441,00	1204,50
442,00	1214,01
443,00	1206,45
444,00	1202,79
445,00	1202,87
446,00	1209,95
447,00	1206,49
448,00	1218,80
449,00	1206,56
450,00	1201,77
451,00	1221,83
452,00	1218,78
453,00	1204,59
454,00	1207,92
455,00	1205,21
456,00	1206,87
457,00	1241,83
458,00	1206,45
459,00	1207,60
460,00	1203,07
461,00	1203,12
462,00	1203,16
463,00	1204,83
464,00	1207,42
465,00	1202,73
466,00	1208,87
467,00	1208,71
468,00	1202,47
469,00	1212,06
470,00	1217,35
471,00	1208,14
472,00	1220,38
473,00	1200,05
474,00	1201,47
475,00	1208,84
476,00	1201,53
477,00	1203,63
478,00	1212,97
479,00	1210,99
480,00	1207,53
481,00	1201,92
482,00	1207,34
483,00	1218,90
484,00	1214,32
485,00	1217,71
486,00	1201,39
487,00	1210,42
488,00	1210,07
489,00	1204,73
490,00	1211,54
491,00	1212,10
492,00	1206,55
493,00	1202,17
494,00	1208,20
495,00	1216,01
496,00	1211,79
497,00	1204,12
498,00	1208,03
499,00	1199,09
500,00	1201,35
501,00	1203,79
502,00	1207,70
503,00	1207,76
504,00	1209,05
505,00	1212,48
506,00	1213,75
507,00	1216,99
508,00	1216,41
509,00	1203,47
510,00	1204,26
511,00	1216,15
512,00	1210,40
513,00	1212,89
514,00	1234,89
515,00	1208,01
516,00	1206,76
517,00	1202,96
518,00	1203,56
519,00	1218,85
520,00	1217,54
521,00	1202,41
522,00	1210,11
523,00	1228,16
524,00	1212,35
525,00	1204,59
526,00	1205,50
527,00	1209,89
528,00	1213,13
529,00	1211,87
530,00	1205,24
531,00	1208,61
532,00	1201,82
533,00	1212,51
534,00	1207,06
535,00	1209,60
536,00	1214,01
537,00	1209,23
538,00	1218,04
539,00	1214,96
540,00	1201,51
541,00	1214,39
542,00	1203,85
543,00	1208,13
544,00	1212,83
545,00	1207,48
546,00	1201,12
547,00	1214,13
548,00	1207,13
549,00	1202,01
550,00	1206,48
551,00	1209,37
552,00	1234,36
553,00	1215,79
554,00	1208,82
555,00	1216,30
556,00	1205,63
557,00	1210,12
558,00	1203,99
559,00	1205,28
560,00	1216,93
561,00	1219,99
562,00	1214,27
563,00	1206,10
564,00	1212,16
565,00	1210,92
566,00	1211,70
567,00	1212,89
568,00	1210,63
569,00	1206,87
570,00	1207,12
571,00	1212,05
572,00	1205,10
573,00	1208,36
574,00	1205,87
575,00	1209,34
576,00	1214,02
577,00	1209,95
578,00	1204,02
579,00	1204,16
580,00	1209,39
581,00	1211,00
582,00	1208,85
583,00	1201,33
584,00	1202,36
585,00	1217,39
586,00	1204,80
587,00	1205,74
588,00	1203,39
589,00	1206,21
590,00	1210,42
591,00	1203,08
592,00	1211,14
593,00	1209,47
594,00	1207,18
595,00	1207,48
596,00	1213,48
597,00	1209,86
598,00	1201,95
599,00	1209,17
600,00	1210,17
601,00	1613,55
602,00	1237,41
603,00	1213,30
604,00	1208,08
605,00	1209,97
606,00	1207,39
607,00	1205,22
608,00	1207,91
609,00	1210,97
610,00	1209,71
611,00	1202,89
612,00	1213,09
613,00	1203,26
614,00	1215,58
615,00	1211,54
616,00	1210,28
617,00	1217,75
618,00	1208,37
619,00	1199,46
620,00	1207,74
621,00	1212,52
622,00	1207,66
623,00	1210,05
624,00	1199,88
625,00	1231,01
626,00	1204,31
627,00	1218,02
628,00	1204,41
629,00	1211,67
630,00	1208,44
631,00	1201,72
632,00	1210,92
633,00	1205,22
634,00	1208,70
635,00	1220,51
636,00	1210,17
637,00	1205,26
638,00	1205,03
639,00	1204,97
640,00	1210,69
641,00	1210,50
642,00	1211,09
643,00	1207,16
644,00	1203,83
645,00	1207,34
646,00	1203,46
647,00	1205,23
648,00	1202,71
649,00	1205,01
650,00	1205,55
651,00	1207,41
652,00	1211,88
653,00	1207,32
654,00	1204,54
655,00	1204,83
656,00	1216,26
657,00	1206,38
658,00	1215,13
659,00	1211,95
660,00	1252,17
661,00	1213,60
662,00	1209,56
663,00	1213,56
664,00	1213,35
665,00	1207,79
666,00	1219,18
667,00	1200,48
668,00	1203,11
669,00	1213,90
670,00	1211,69
671,00	1210,04
672,00	1205,94
673,00	1216,95
674,00	1211,25
675,00	1207,34
676,00	1219,38
677,00	1211,04
678,00	1206,99
679,00	1209,65
680,00	1207,40
681,00	1203,40
682,00	1211,35
683,00	1209,40
684,00	1203,04
685,00	1207,47
686,00	1211,12
687,00	1217,91
688,00	1206,45
689,00	1224,37
690,00	1223,56
691,00	1212,93
692,00	1214,34
693,00	1213,78
694,00	1207,59
695,00	1218,45
696,00	1214,10
697,00	1210,34
698,00	1213,43
699,00	1243,38
700,00	1210,04
701,00	1219,52
702,00	1217,90
703,00	1208,03
704,00	1218,16
705,00	1207,82
706,00	1214,66
707,00	1207,90
708,00	1217,76
709,00	1209,07
710,00	1206,02
711,00	1214,44
712,00	1208,70
713,00	1208,52
714,00	1208,53
715,00	1208,82
716,00	1210,81
717,00	1208,53
718,00	1208,08
719,00	1201,68
720,00	1217,74
721,00	1210,88
722,00	1208,36
723,00	1230,40
724,00	1213,79
725,00	1216,79
726,00	1212,06
727,00	1206,47
728,00	1211,46
729,00	1230,30
730,00	1207,81
731,00	1210,52
732,00	1206,20
733,00	1205,72
734,00	1219,12
735,00	1208,58
736,00	1206,65
737,00	1202,27
738,00	1204,54
739,00	1205,46
740,00	1209,94
741,00	1217,28
742,00	1233,67
743,00	1212,45
744,00	1211,76
745,00	1204,74
746,00	1209,24
747,00	1207,70
748,00	1219,08
749,00	1219,91
750,00	1208,03
751,00	1208,80
752,00	1216,12
753,00	1220,21
754,00	1216,02
755,00	1228,71
756,00	1234,19
757,00	1256,12
758,00	1284,56
759,00	1321,74
760,00	1304,46
761,00	1264,99
762,00	1236,44
763,00	1231,63
764,00	1214,57
765,00	1218,39
766,00	1209,72
767,00	1214,86
768,00	1203,14
769,00	1205,35
770,00	1210,01
771,00	1208,87
772,00	1210,15
773,00	1211,41
774,00	1213,04
775,00	1216,10
776,00	1205,19
777,00	1207,99
778,00	1209,84
779,00	1206,62
780,00	1213,40
781,00	1205,45
782,00	1214,97
783,00	1211,11
784,00	1216,86
785,00	1226,82
786,00	1211,21
787,00	1210,24
788,00	1213,98
789,00	1212,47
790,00	1211,40
791,00	1207,67
792,00	1209,53
793,00	1206,72
794,00	1208,16
795,00	1208,35
796,00	1207,52
797,00	1204,92
798,00	1213,14
799,00	1205,17
800,00	1215,81
801,00	1217,97
802,00	1231,27
803,00	1218,79
804,00	1213,29
805,00	1207,86
806,00	1209,95
807,00	1206,87
808,00	1204,59
809,00	1205,99
810,00	1211,51
811,00	1205,15
812,00	1217,74
813,00	1209,36
814,00	1212,94
815,00	1209,41
816,00	1215,47
817,00	1212,28
818,00	1205,78
819,00	1214,66
820,00	1205,15
821,00	1215,78
822,00	1207,56
823,00	1208,89
824,00	1208,22
825,00	1207,19
826,00	1203,02
827,00	1213,80
828,00	1206,93
829,00	1222,57
830,00	1213,46
831,00	1218,62
832,00	1211,72
833,00	1212,19
834,00	1212,14
835,00	1206,72
836,00	1214,45
837,00	1215,89
838,00	1203,99
839,00	1206,32
840,00	1209,38
841,00	1518,91
842,00	1229,04
843,00	1222,09
844,00	1211,57
845,00	1222,57
846,00	1213,28
847,00	1205,73
848,00	1210,74
849,00	1209,21
850,00	1212,02
851,00	1204,48
852,00	1200,28
853,00	1215,08
854,00	1206,14
855,00	1209,89
856,00	1202,79
857,00	1213,30
858,00	1210,08
859,00	1216,76
860,00	1219,03
861,00	1208,44
862,00	1207,28
863,00	1203,79
864,00	1211,72
865,00	1205,18
866,00	1217,64
867,00	1213,02
868,00	1205,52
869,00	1217,33
870,00	1206,83
871,00	1211,75
872,00	1209,95
873,00	1205,46
874,00	1203,96
875,00	1211,29
876,00	1208,44
877,00	1202,09
878,00	1207,72
879,00	1214,26
880,00	1214,53
881,00	1201,52
882,00	1217,88
883,00	1207,85
884,00	1207,84
885,00	1207,71
886,00	1209,16
887,00	1210,48
888,00	1206,98
889,00	1201,74
890,00	1213,86
891,00	1221,93
892,00	1209,86
893,00	1205,35
894,00	1203,89
895,00	1204,61
896,00	1208,47
897,00	1201,58
898,00	1214,38
899,00	1207,14
900,00	1212,29
901,00	1206,27
902,00	1206,61
903,00	1210,74
904,00	1207,13
905,00	1208,83
906,00	1218,94
907,00	1213,34
908,00	1210,18
909,00	1206,58
910,00	1210,31
911,00	1208,47
912,00	1211,72
913,00	1211,46
914,00	1209,22
915,00	1205,31
916,00	1217,11
917,00	1207,85
918,00	1200,71
919,00	1204,11
920,00	1204,87
921,00	1208,50
922,00	1209,49
923,00	1212,51
924,00	1210,97
925,00	1208,68
926,00	1210,70
927,00	1210,59
928,00	1207,49
929,00	1208,72
930,00	1208,26
931,00	1216,01
932,00	1202,42
933,00	1218,83
934,00	1203,03
935,00	1218,67
936,00	1210,39
937,00	1207,57
938,00	1203,30
939,00	1217,13
940,00	1205,22
941,00	1202,25
942,00	1207,72
943,00	1208,04
944,00	1227,71
945,00	1213,34
946,00	1207,58
947,00	1211,43
948,00	1212,10
949,00	1209,08
950,00	1219,64
951,00	1211,60
952,00	1205,57
953,00	1202,38
954,00	1205,53
955,00	1212,88
956,00	1205,03
957,00	1203,67
958,00	1208,36
959,00	1208,12
960,00	1201,89
961,00	1215,84
962,00	1207,20
963,00	1210,66
964,00	1240,93
965,00	1210,78
966,00	1211,19
967,00	1212,52
968,00	1203,24
969,00	1227,06
970,00	1210,24
971,00	1214,25
972,00	1206,81
973,00	1212,03
974,00	1207,31
975,00	1208,57
976,00	1200,82
977,00	1212,59
978,00	1211,62
979,00	1204,08
980,00	1201,94
981,00	1209,17
982,00	1203,28
983,00	1200,11
984,00	1205,89
985,00	1208,10
986,00	1210,34
987,00	1216,46
988,00	1229,46
989,00	1204,25
990,00	1208,80
991,00	1211,20
992,00	1213,31
993,00	1206,07
994,00	1208,86
995,00	1209,17
996,00	1205,91
997,00	1214,70
998,00	1207,00
999,00	1224,77
1000,00	1202,80
1001,00	1210,02
1002,00	1205,52
1003,00	1204,80
1004,00	1218,04
1005,00	1203,44
1006,00	1206,03
1007,00	1211,23
1008,00	1204,90
1009,00	1206,55
1010,00	1206,84
1011,00	1202,71
1012,00	1213,54
1013,00	1202,80
1014,00	1206,01
1015,00	1210,43
1016,00	1212,09
1017,00	1203,81
1018,00	1215,89
1019,00	1211,33
1020,00	1206,56
1021,00	1207,44
1022,00	1209,60
1023,00	1206,05
1024,00	1211,40
1025,00	1204,85
1026,00	1207,40
1027,00	1207,98
1028,00	1220,46
1029,00	1204,80
1030,00	1207,59
1031,00	1205,64
1032,00	1204,31
1033,00	1214,79
1034,00	1205,92
1035,00	1214,93
1036,00	1209,56
1037,00	1211,85
1038,00	1208,50
1039,00	1202,99
1040,00	1207,15
1041,00	1208,84
1042,00	1214,77
1043,00	1212,26
1044,00	1255,44
1045,00	1215,78
1046,00	1206,47
1047,00	1206,16
1048,00	1213,28
1049,00	1208,28
1050,00	1211,54
1051,00	1209,01
1052,00	1209,54
1053,00	1210,97
1054,00	1201,97
1055,00	1214,89
1056,00	1212,63
1057,00	1209,54
1058,00	1204,49
1059,00	1210,91
1060,00	1207,28
1061,00	1208,83
1062,00	1202,88
1063,00	1203,92
1064,00	1212,01
1065,00	1207,39
1066,00	1202,97
1067,00	1212,03
1068,00	1207,82
1069,00	1213,48
1070,00	1215,00
1071,00	1216,84
1072,00	1212,45
1073,00	1209,83
1074,00	1207,03
1075,00	1224,63
1076,00	1207,97
1077,00	1206,69
1078,00	1209,55
1079,00	1205,10
1080,00	1224,41
1081,00	1215,62
1082,00	1208,11
1083,00	1212,35
1084,00	1209,01
1085,00	1217,16
1086,00	1200,95
1087,00	1216,58
1088,00	1213,94
1089,00	1206,22
1090,00	1205,78
1091,00	1216,05
1092,00	1219,78
1093,00	1230,01
1094,00	1209,62
1095,00	1209,13
1096,00	1207,07
1097,00	1212,05
1098,00	1204,11
1099,00	1216,75
1100,00	1208,26
1101,00	1210,74
1102,00	1209,71
1103,00	1217,08
1104,00	1213,50
1105,00	1221,88
1106,00	1209,54
1107,00	1211,53
1108,00	1210,84
1109,00	1202,71
1110,00	1204,48
1111,00	1223,91
1112,00	1216,38
1113,00	1211,80
1114,00	1209,55
1115,00	1205,59
1116,00	1215,33
1117,00	1203,17
1118,00	1207,48
1119,00	1210,19
1120,00	1214,44
1121,00	1246,96
1122,00	1209,18
1123,00	1206,89
1124,00	1218,10
1125,00	1202,34
1126,00	1207,60
1127,00	1208,62
1128,00	1231,73
1129,00	1203,21
1130,00	1203,41
1131,00	1215,17
1132,00	1211,52
1133,00	1211,83
1134,00	1225,95
1135,00	1215,91
1136,00	1220,77
1137,00	1215,55
1138,00	1207,99
1139,00	1212,24
1140,00	1208,21
1141,00	1203,92
1142,00	1205,52
1143,00	1207,25
1144,00	1216,78
1145,00	1224,91
1146,00	1213,13
1147,00	1215,65
1148,00	1208,48
1149,00	1204,14
1150,00	1210,07
1151,00	1214,60
1152,00	1213,72
1153,00	1207,64
1154,00	1215,60
1155,00	1208,30
1156,00	1217,14
1157,00	1213,42
1158,00	1215,42
1159,00	1209,84
1160,00	1206,78
1161,00	1213,36
1162,00	1216,76
1163,00	1207,05
1164,00	1203,08
1165,00	1219,83
1166,00	1221,13
1167,00	1210,75
1168,00	1212,80
1169,00	1207,61
1170,00	1206,96
1171,00	1219,37
1172,00	1209,35
1173,00	1209,13
1174,00	1210,58
1175,00	1203,64
1176,00	1205,68
1177,00	1214,10
1178,00	1224,56
1179,00	1214,76
1180,00	1210,54
1181,00	1211,62
1182,00	1209,53
1183,00	1212,79
1184,00	1203,26
1185,00	1208,38
1186,00	1213,54
1187,00	1212,22
1188,00	1215,31
1189,00	1206,07
1190,00	1209,76
1191,00	1214,40
1192,00	1220,71
1193,00	1206,86
1194,00	1211,04
1195,00	1212,86
1196,00	1214,05
1197,00	1206,14
1198,00	1218,77
1199,00	1214,93
1200,00	1210,75
1201,00	1206,34
1202,00	1211,76
1203,00	1209,92
1204,00	1204,57
1205,00	1213,82
1206,00	1208,10
1207,00	1213,43
1208,00	1211,49
1209,00	1203,58
1210,00	1208,20
1211,00	1214,24
1212,00	1205,52
1213,00	1205,69
1214,00	1205,57
1215,00	1212,14
1216,00	1203,49
1217,00	1212,06
1218,00	1206,15
1219,00	1211,20
1220,00	1209,22
1221,00	1220,92
1222,00	1215,55
1223,00	1205,20
1224,00	1208,70
1225,00	1207,66
1226,00	1203,70
1227,00	1213,28
1228,00	1207,01
1229,00	1207,59
1230,00	1206,13
1231,00	1208,24
1232,00	1205,13
1233,00	1207,32
1234,00	1206,86
1235,00	1203,71
1236,00	1213,52
1237,00	1209,57
1238,00	1210,32
1239,00	1209,93
1240,00	1203,77
1241,00	1211,70
1242,00	1209,88
1243,00	1216,19
1244,00	1206,64
1245,00	1209,09
1246,00	1209,62
1247,00	1218,63
1248,00	1215,57
1249,00	1213,31
1250,00	1208,20
1251,00	1214,52
1252,00	1210,00
1253,00	1217,44
1254,00	1208,25
1255,00	1215,08
1256,00	1211,62
1257,00	1211,84
1258,00	1205,15
1259,00	1202,49
1260,00	1213,31
1261,00	1211,26
1262,00	1206,49
1263,00	1207,16
1264,00	1211,29
1265,00	1207,28
1266,00	1228,24
1267,00	1207,63
1268,00	1207,87
1269,00	1208,86
1270,00	1216,04
1271,00	1204,16
1272,00	1205,48
1273,00	1210,75
1274,00	1209,06
1275,00	1208,87
1276,00	1225,41
1277,00	1282,88
1278,00	1221,97
1279,00	1214,56
1280,00	1212,18
1281,00	1206,89
1282,00	1208,38
1283,00	1205,72
1284,00	1206,31
1285,00	1227,71
1286,00	1206,95
1287,00	1211,66
1288,00	1210,95
1289,00	1228,67
1290,00	1208,70
1291,00	1204,62
1292,00	1210,91
1293,00	1206,94
1294,00	1207,26
1295,00	1207,54
1296,00	1220,48
1297,00	1209,48
1298,00	1212,10
1299,00	1204,59
1300,00	1213,56
1301,00	1218,37
1302,00	1222,94
1303,00	1208,57
1304,00	1224,51
1305,00	1216,29
1306,00	1211,72
1307,00	1211,54
1308,00	1215,25
1309,00	1205,70
1310,00	1205,40
1311,00	1205,26
1312,00	1210,23
1313,00	1206,85
1314,00	1209,96
1315,00	1221,76
1316,00	1202,19
1317,00	1207,09
1318,00	1207,78
1319,00	1211,53
1320,00	1210,53
1321,00	1213,04
1322,00	1267,13
1323,00	1206,65
1324,00	1201,79
1325,00	1207,25
1326,00	1209,25
1327,00	1203,29
1328,00	1212,62
1329,00	1202,49
1330,00	1205,61
1331,00	1211,29
1332,00	1207,23
1333,00	1205,42
1334,00	1205,91
1335,00	1215,18
1336,00	1214,78
1337,00	1213,93
1338,00	1208,19
1339,00	1204,92
1340,00	1207,63
1341,00	1214,26
1342,00	1208,85
1343,00	1220,88
1344,00	1214,54
1345,00	1202,57
1346,00	1205,51
1347,00	1211,32
1348,00	1211,55
1349,00	1202,77
1350,00	1227,30
1351,00	1220,86
1352,00	1211,91
1353,00	1211,36
1354,00	1238,81
1355,00	1205,53
1356,00	1205,60
1357,00	1205,59
1358,00	1212,14
1359,00	1215,93
1360,00	1208,69
1361,00	1205,33
1362,00	1207,23
1363,00	1209,23
1364,00	1214,08
1365,00	1219,70
1366,00	1206,62
1367,00	1203,85
1368,00	1206,53
1369,00	1205,82
1370,00	1214,88
1371,00	1205,13
1372,00	1203,57
1373,00	1222,00
1374,00	1207,78
1375,00	1211,70
1376,00	1212,63
1377,00	1212,67
1378,00	1216,83
1379,00	1211,89
1380,00	1237,73
1381,00	1207,28
1382,00	1203,57
1383,00	1219,34
1384,00	1206,29
1385,00	1212,19
1386,00	1217,45
1387,00	1219,46
1388,00	1208,24
1389,00	1218,11
1390,00	1203,27
1391,00	1204,14
1392,00	1222,24
1393,00	1214,02
1394,00	1209,05
1395,00	1208,18
1396,00	1218,42
1397,00	1205,83
1398,00	1235,54
1399,00	1258,61
1400,00	1217,84
1401,00	1220,49
1402,00	1257,11
1403,00	1216,60
1404,00	1208,57
1405,00	1210,48
1406,00	1208,29
1407,00	1210,89
1408,00	1212,28
1409,00	1208,42
1410,00	1205,03
1411,00	1300,66
1412,00	1214,92
1413,00	1203,73
1414,00	1201,40
1415,00	1204,26
1416,00	1201,70
1417,00	1202,02
1418,00	1210,36
1419,00	1214,38
1420,00	1203,10
1421,00	1204,45
1422,00	1200,17
1423,00	1202,46
1424,00	1210,50
1425,00	1203,14
1426,00	1211,18
1427,00	1210,90
1428,00	1202,49
1429,00	1209,44
1430,00	1201,35
1431,00	1199,75
1432,00	1211,60
1433,00	1204,76
1434,00	1212,15
1435,00	1213,13
1436,00	1207,62
1437,00	1220,31
1438,00	1206,21
1439,00	1210,16
1440,00	1209,15
1441,00	1207,77
1442,00	1204,49
1443,00	1203,15
1444,00	1203,68
1445,00	1203,04
1446,00	1213,95
1447,00	1209,83
1448,00	1209,28
1449,00	1207,23
1450,00	1207,34
1451,00	1205,28
1452,00	1216,95
1453,00	1207,39
1454,00	1215,77
1455,00	1218,61
1456,00	1207,29
1457,00	1220,68
1458,00	1214,76
1459,00	1208,34
1460,00	1206,96
1461,00	1211,22
1462,00	1206,36
1463,00	1211,76
1464,00	1209,50
1465,00	1208,19
1466,00	1205,07
1467,00	1211,24
1468,00	1206,45
1469,00	1205,79
1470,00	1206,62
1471,00	1211,67
1472,00	1210,76
1473,00	1204,78
1474,00	1207,63
1475,00	1206,26
1476,00	1225,84
1477,00	1217,39
1478,00	1254,11
1479,00	1224,97
1480,00	1212,51
1481,00	1206,42
1482,00	1207,09
1483,00	1205,03
1484,00	1213,42
1485,00	1216,62
1486,00	1205,44
1487,00	1213,05
1488,00	1214,96
1489,00	1213,11
1490,00	1212,07
1491,00	1207,52
1492,00	1206,58
1493,00	1203,94
1494,00	1203,80
1495,00	1212,17
1496,00	1205,12
1497,00	1220,41
1498,00	1216,85
1499,00	1211,21
1500,00	1209,74
1501,00	1211,23
1502,00	1205,61
1503,00	1222,31
1504,00	1207,92
1505,00	1217,31
1506,00	1204,01
1507,00	1201,52
1508,00	1209,19
1509,00	1206,30
1510,00	1201,66
1511,00	1212,74
1512,00	1205,23
1513,00	1206,60
1514,00	1208,22
1515,00	1209,20
1516,00	1264,70
1517,00	1222,49
1518,00	1209,57
1519,00	1208,31
1520,00	1216,98
1521,00	1209,21
1522,00	1210,94
1523,00	1205,61
1524,00	1205,45
1525,00	1203,20
1526,00	1205,46
1527,00	1204,55
1528,00	1210,37
1529,00	1202,53
1530,00	1200,69
1531,00	1206,84
1532,00	1205,17
1533,00	1200,71
1534,00	1208,05
1535,00	1203,40
1536,00	1211,01
1537,00	1216,57
1538,00	1214,37
1539,00	1213,18
1540,00	1211,06
1541,00	1209,06
1542,00	1206,49
1543,00	1206,79
1544,00	1213,86
1545,00	1213,17
1546,00	1208,11
1547,00	1210,04
1548,00	1206,90
1549,00	1205,04
1550,00	1207,57
1551,00	1212,89
1552,00	1204,33
1553,00	1202,51
1554,00	1204,41
1555,00	1202,79
1556,00	1201,79
1557,00	1210,12
1558,00	1209,85
1559,00	1203,92
1560,00	1207,07
1561,00	1203,34
1562,00	1212,93
1563,00	1207,16
1564,00	1206,50
1565,00	1205,65
1566,00	1212,16
1567,00	1210,99
1568,00	1211,65
1569,00	1207,99
1570,00	1207,26
1571,00	1213,29
1572,00	1216,36
1573,00	1212,01
1574,00	1218,85
1575,00	1204,17
1576,00	1201,74
1577,00	1200,35
1578,00	1213,61
1579,00	1204,13
1580,00	1204,43
1581,00	1206,69
1582,00	1202,01
1583,00	1219,59
1584,00	1208,69
1585,00	1200,70
1586,00	1209,17
1587,00	1213,46
1588,00	1215,66
1589,00	1207,17
1590,00	1213,16
1591,00	1206,61
1592,00	1221,89
1593,00	1206,85
1594,00	1208,66
1595,00	1203,00
1596,00	1205,45
1597,00	1202,75
1598,00	1205,29
1599,00	1203,38
1600,00	1200,39
1601,00	1212,32
1602,00	1217,01
1603,00	1211,75
1604,00	1205,70
1605,00	1220,62
1606,00	1207,67
1607,00	1204,98
1608,00	1206,25
1609,00	1207,40
1610,00	1204,08
1611,00	1216,80
1612,00	1204,18
1613,00	1207,98
1614,00	1202,87
1615,00	1205,09
1616,00	1210,67
1617,00	1207,21
1618,00	1211,68
1619,00	1205,01
1620,00	1213,52
1621,00	1211,62
1622,00	1206,24
1623,00	1216,38
1624,00	1213,33
1625,00	1205,78
1626,00	1224,65
1627,00	1207,10
1628,00	1209,05
1629,00	1265,46
1630,00	1214,49
1631,00	1205,07
1632,00	1212,80
1633,00	1209,62
1634,00	1208,75
1635,00	1202,80
1636,00	1206,26
1637,00	1208,12
1638,00	1203,13
1639,00	1200,76
1640,00	1210,02
1641,00	1215,25
1642,00	1217,58
1643,00	1205,06
1644,00	1227,57
1645,00	1212,42
1646,00	1205,89
1647,00	1212,64
1648,00	1208,40
1649,00	1205,74
1650,00	1226,78
1651,00	1216,89
1652,00	1201,73
1653,00	1205,76
1654,00	1205,85
1655,00	1207,57
1656,00	1205,77
1657,00	1219,05
1658,00	1205,06
1659,00	1213,84
1660,00	1212,17
1661,00	1215,97
1662,00	1209,58
1663,00	1212,24
1664,00	1208,88
1665,00	1205,02
1666,00	1210,27
1667,00	1221,13
1668,00	1204,35
1669,00	1204,29
1670,00	1210,98
1671,00	1204,94
1672,00	1202,76
1673,00	1211,20
1674,00	1213,89
1675,00	1209,44
1676,00	1210,58
1677,00	1206,21
1678,00	1212,80
1679,00	1208,94
1680,00	1209,86
1681,00	1213,68
1682,00	1226,99
1683,00	1214,58
1684,00	1220,36
1685,00	1216,10
1686,00	1202,08
1687,00	1204,64
1688,00	1214,26
1689,00	1205,35
1690,00	1202,37
1691,00	1203,24
1692,00	1207,29
1693,00	1219,55
1694,00	1207,98
1695,00	1211,18
1696,00	1206,04
1697,00	1209,69
1698,00	1203,00
1699,00	1208,54
1700,00	1210,79
1701,00	1215,85
1702,00	1203,67
1703,00	1203,19
1704,00	1206,79
1705,00	1212,35
1706,00	1204,41
1707,00	1206,37
1708,00	1205,22
1709,00	1209,99
1710,00	1207,44
1711,00	1203,07
1712,00	1205,84
1713,00	1223,82
1714,00	1213,07
1715,00	1210,78
1716,00	1218,09
1717,00	1206,05
1718,00	1218,74
1719,00	1214,11
1720,00	1208,08
1721,00	1212,60
1722,00	1206,67
1723,00	1215,00
1724,00	1204,10
1725,00	1210,98
1726,00	1210,42
1727,00	1204,46
1728,00	1217,33
1729,00	1204,14
1730,00	1223,01
1731,00	1209,77
1732,00	1223,68
1733,00	1210,26
1734,00	1203,89
1735,00	1207,94
1736,00	1206,39
1737,00	1203,26
1738,00	1209,12
1739,00	1213,98
1740,00	1211,97
1741,00	1225,87
1742,00	1210,13
1743,00	1204,21
1744,00	1204,65
1745,00	1208,22
1746,00	1205,98
1747,00	1207,50
1748,00	1212,26
1749,00	1224,56
1750,00	1213,00
1751,00	1226,04
1752,00	1207,52
1753,00	1203,05
1754,00	1205,71
1755,00	1208,25
1756,00	1205,65
1757,00	1219,44
1758,00	1204,94
1759,00	1203,69
1760,00	1203,43
1761,00	1211,99
1762,00	1207,65
1763,00	1204,80
1764,00	1212,81
1765,00	1205,81
1766,00	1203,36
1767,00	1206,31
1768,00	1207,96
1769,00	1207,15
1770,00	1202,22
1771,00	1207,65
1772,00	1224,10
1773,00	1204,11
1774,00	1201,19
1775,00	1203,70
1776,00	1206,27
1777,00	1199,93
1778,00	1203,52
1779,00	1204,54
1780,00	1202,88
1781,00	1200,33
1782,00	1202,35
1783,00	1209,89
1784,00	1207,76
1785,00	1207,24
1786,00	1209,90
1787,00	1207,46
1788,00	1209,48
1789,00	1212,20
1790,00	1216,73
1791,00	1203,65
1792,00	1210,60
1793,00	1206,52
1794,00	1202,21
1795,00	1206,89
1796,00	1204,45
1797,00	1199,69
1798,00	1205,60
1799,00	1201,31
1800,00	1211,88
1801,00	1207,20
1802,00	1212,73
1803,00	1203,50
1804,00	1211,45
1805,00	1211,16
1806,00	1208,27
1807,00	1209,04
1808,00	1205,95
1809,00	1209,13
1810,00	1213,39
1811,00	1209,96
1812,00	1205,13
1813,00	1206,62
1814,00	1208,44
1815,00	1213,49
1816,00	1229,42
1817,00	1205,72
1818,00	1253,27
1819,00	1219,68
1820,00	1215,13
1821,00	1205,59
1822,00	1202,55
1823,00	1202,75
1824,00	1204,17
1825,00	1221,94
1826,00	1206,84
1827,00	1221,26
1828,00	1227,69
1829,00	1208,96
1830,00	1213,46
1831,00	1202,53
1832,00	1204,84
1833,00	1199,38
1834,00	1206,45
1835,00	1205,69
1836,00	1201,20
1837,00	1204,00
1838,00	1208,27
1839,00	1219,44
1840,00	1226,94
1841,00	1209,57
1842,00	1209,57
1843,00	1214,20
1844,00	1225,59
1845,00	1209,73
1846,00	1201,32
1847,00	1205,44
1848,00	1211,46
1849,00	1207,87
1850,00	1210,22
1851,00	1213,00
1852,00	1206,35
1853,00	1204,27
1854,00	1206,64
1855,00	1201,89
1856,00	1202,80
1857,00	1207,49
1858,00	1219,99
1859,00	1200,79
1860,00	1206,27
1861,00	1242,61
1862,00	1205,68
1863,00	1206,05
1864,00	1202,17
1865,00	1206,87
1866,00	1213,15
1867,00	1202,85
1868,00	1208,57
1869,00	1202,35
1870,00	1205,37
1871,00	1202,02
1872,00	1207,00
1873,00	1209,54
1874,00	1211,81
1875,00	1206,19
1876,00	1202,71
1877,00	1210,98
1878,00	1215,71
1879,00	1211,11
1880,00	1203,40
1881,00	1212,38
1882,00	1206,02
1883,00	1203,74
1884,00	1205,91
1885,00	1211,79
1886,00	1210,37
1887,00	1204,07
1888,00	1203,28
1889,00	1210,43
1890,00	1201,19
1891,00	1209,85
1892,00	1217,71
1893,00	1205,70
1894,00	1211,20
1895,00	1208,91
1896,00	1216,08
1897,00	1229,00
1898,00	1205,78
1899,00	1208,25
1900,00	1207,12
1901,00	1206,70
1902,00	1205,82
1903,00	1219,36
1904,00	1209,54
1905,00	1245,03
1906,00	1205,69
1907,00	1203,44
1908,00	1246,92
1909,00	1206,27
1910,00	1206,69
1911,00	1208,30
1912,00	1211,70
1913,00	1221,47
1914,00	1205,28
1915,00	1209,66
1916,00	1212,73
1917,00	1208,53
1918,00	1209,36
1919,00	1207,32
1920,00	1207,10
1921,00	1216,14
1922,00	1207,44
1923,00	1211,04
1924,00	1211,56
1925,00	1202,24
1926,00	1207,08
1927,00	1214,79
1928,00	1220,04
1929,00	1213,29
1930,00	1203,79
1931,00	1212,80
1932,00	1228,96
1933,00	1210,45
1934,00	1204,52
1935,00	1205,31
1936,00	1209,21
1937,00	1204,71
1938,00	1210,86
1939,00	1207,76
1940,00	1225,81
1941,00	1203,19
1942,00	1207,59
1943,00	1206,39
1944,00	1209,45
1945,00	1205,20
1946,00	1202,87
1947,00	1202,43
1948,00	1225,96
1949,00	1200,75
1950,00	1211,62
1951,00	1205,38
1952,00	1206,75
1953,00	1203,20
1954,00	1210,82
1955,00	1205,46
1956,00	1206,99
1957,00	1206,49
1958,00	1199,67
1959,00	1207,12
1960,00	1202,94
1961,00	1211,87
1962,00	1201,05
1963,00	1208,89
1964,00	1201,55
1965,00	1208,74
1966,00	1205,30
1967,00	1211,33
1968,00	1204,10
1969,00	1203,76
1970,00	1212,83
1971,00	1212,35
1972,00	1209,13
1973,00	1211,93
1974,00	1213,83
1975,00	1214,87
1976,00	1209,58
1977,00	1210,34
1978,00	1206,84
1979,00	1209,60
1980,00	1247,98
1981,00	1210,05
1982,00	1203,29
1983,00	1208,73
1984,00	1206,17
1985,00	1216,94
1986,00	1202,79
1987,00	1205,22
1988,00	1204,21
1989,00	1207,85
1990,00	1219,58
1991,00	1211,69
1992,00	1211,49
1993,00	1229,28
1994,00	1210,97
1995,00	1200,55
1996,00	1208,76
1997,00	1208,93
1998,00	1214,25
1999,00	1203,33
2000,00	1202,47
2001,00	1208,07
2002,00	1216,92
2003,00	1199,74
2004,00	1211,45
2005,00	1202,01
2006,00	1223,61
2007,00	1205,88
2008,00	1202,93
2009,00	1222,24
2010,00	1206,90
2011,00	1198,33
2012,00	1205,57
2013,00	1203,99
2014,00	1206,23
2015,00	1204,14
2016,00	1203,76
2017,00	1203,87
2018,00	1209,82
2019,00	1203,43
2020,00	1201,85
2021,00	1209,73
2022,00	1207,94
2023,00	1206,24
2024,00	1206,09
2025,00	1218,69
2026,00	1202,93
2027,00	1201,06
2028,00	1211,06
2029,00	1203,47
2030,00	1202,12
2031,00	1205,11
2032,00	1200,18
2033,00	1206,08
2034,00	1216,27
2035,00	1209,89
2036,00	1207,91
2037,00	1202,97
2038,00	1207,30
2039,00	1209,34
2040,00	1208,01
2041,00	1207,52
2042,00	1203,55
2043,00	1204,63
2044,00	1210,51
2045,00	1202,74
2046,00	1202,74
2047,00	1202,74
>>>>>End Processed Spectral Data<<<<<
