SpectraSuite Datei
++++++++++++++++++++++++++++++++++++
Datum: Wed Sep 18 17:12:08 CEST 2024
Benutzer: Student
Dark-Spektrum vorhanden: Nein
Referenz-Spektrum vorhanden: Nein
Zahl der probierten Teilspektren: 1
Spektrometer: USB2+H15728
Integrationszeit (usec): 1000 (USB2+H15728)
Spektren Durchschnitt berechnet: 150 (USB2+H15728)
Boxcar Glättung: 0 (USB2+H15728)
Dunkelstromkorrektur: Nein (USB2+H15728)
Puls/Lampe aktiviert: Nein (USB2+H15728)
Correct for Detector Non-linearity: Nein (USB2+H15728)
Streulichtkorrektur: Nein (USB2+H15728)
Anzahl Pixel in verarbeitetem Spektrum: 2048
>>>>>Begin Processed Spectral Data<<<<<
395,19	1028,95
395,38	1028,95
395,57	1028,95
395,76	996,82
395,95	992,59
396,14	995,91
396,33	999,03
396,52	1012,83
396,70	1021,66
396,89	1031,51
397,08	1045,06
397,27	1057,98
397,46	1072,84
397,65	1089,47
397,84	1101,61
398,03	1124,02
398,22	1137,44
398,41	1158,64
398,60	1171,33
398,78	1191,36
398,97	1197,36
399,16	1215,75
399,35	1232,39
399,54	1249,13
399,73	1260,74
399,92	1272,32
400,11	1288,98
400,30	1295,95
400,48	1309,20
400,67	1312,96
400,86	1324,63
401,05	1323,96
401,24	1329,11
401,43	1339,39
401,62	1342,20
401,81	1351,41
401,99	1345,42
402,18	1347,90
402,37	1349,91
402,56	1355,87
402,75	1352,99
402,94	1353,84
403,12	1358,98
403,31	1353,00
403,50	1354,12
403,69	1349,46
403,88	1349,86
404,07	1352,35
404,26	1348,02
404,44	1353,95
404,63	1351,82
404,82	1345,11
405,01	1343,22
405,20	1345,14
405,39	1339,49
405,57	1335,49
405,76	1330,64
405,95	1333,29
406,14	1332,23
406,33	1332,78
406,51	1332,70
406,70	1328,99
406,89	1328,53
407,08	1323,15
407,27	1325,80
407,45	1325,99
407,64	1325,38
407,83	1326,80
408,02	1321,42
408,21	1323,98
408,39	1320,16
408,58	1324,88
408,77	1323,15
408,96	1322,18
409,15	1319,24
409,33	1323,92
409,52	1318,44
409,71	1322,56
409,90	1319,50
410,08	1319,19
410,27	1321,50
410,46	1319,63
410,65	1324,35
410,84	1322,61
411,02	1321,03
411,21	1328,64
411,40	1325,27
411,59	1325,74
411,77	1325,62
411,96	1325,84
412,15	1325,37
412,34	1329,72
412,52	1323,60
412,71	1326,57
412,90	1329,47
413,09	1326,97
413,27	1322,39
413,46	1324,40
413,65	1328,30
413,84	1327,74
414,02	1329,42
414,21	1331,27
414,40	1325,99
414,58	1334,98
414,77	1329,07
414,96	1331,69
415,15	1334,17
415,33	1334,29
415,52	1334,96
415,71	1337,19
415,89	1338,24
416,08	1335,90
416,27	1328,66
416,46	1327,24
416,64	1329,92
416,83	1334,37
417,02	1331,81
417,20	1330,10
417,39	1335,42
417,58	1335,26
417,76	1330,80
417,95	1337,04
418,14	1335,17
418,32	1329,00
418,51	1332,53
418,70	1330,45
418,88	1333,59
419,07	1338,01
419,26	1334,90
419,44	1335,29
419,63	1337,93
419,82	1342,47
420,00	1335,98
420,19	1341,95
420,38	1335,68
420,56	1341,42
420,75	1333,51
420,94	1333,86
421,12	1336,15
421,31	1333,64
421,50	1336,91
421,68	1335,23
421,87	1331,42
422,06	1335,71
422,24	1331,52
422,43	1330,03
422,62	1335,15
422,80	1337,48
422,99	1337,83
423,17	1333,93
423,36	1334,51
423,55	1333,92
423,73	1338,72
423,92	1336,84
424,10	1334,51
424,29	1331,87
424,48	1338,66
424,66	1337,35
424,85	1337,88
425,04	1339,68
425,22	1334,64
425,41	1337,68
425,59	1342,38
425,78	1339,11
425,97	1340,99
426,15	1340,14
426,34	1336,73
426,52	1340,77
426,71	1337,94
426,89	1336,68
427,08	1336,90
427,27	1339,33
427,45	1339,58
427,64	1338,57
427,82	1338,46
428,01	1340,33
428,19	1343,76
428,38	1339,93
428,57	1337,30
428,75	1341,60
428,94	1336,18
429,12	1337,54
429,31	1339,30
429,49	1341,92
429,68	1338,85
429,86	1335,43
430,05	1337,73
430,24	1337,43
430,42	1336,52
430,61	1339,93
430,79	1341,38
430,98	1338,07
431,16	1338,77
431,35	1341,42
431,53	1336,79
431,72	1338,66
431,90	1339,93
432,09	1341,06
432,27	1340,69
432,46	1336,80
432,64	1341,81
432,83	1343,86
433,01	1341,28
433,20	1342,39
433,38	1336,82
433,57	1339,83
433,75	1338,51
433,94	1341,28
434,12	1339,79
434,31	1337,57
434,49	1343,36
434,68	1340,88
434,86	1338,79
435,05	1343,00
435,23	1342,11
435,42	1341,45
435,60	1343,44
435,79	1343,42
435,97	1341,47
436,16	1340,69
436,34	1343,42
436,53	1342,70
436,71	1343,42
436,90	1340,64
437,08	1346,01
437,27	1338,96
437,45	1345,82
437,63	1339,49
437,82	1342,39
438,00	1344,14
438,19	1345,90
438,37	1347,85
438,56	1340,47
438,74	1341,50
438,93	1352,67
439,11	1347,77
439,29	1347,07
439,48	1341,58
439,66	1345,25
439,85	1344,04
440,03	1343,08
440,22	1337,73
440,40	1339,22
440,58	1343,17
440,77	1337,62
440,95	1343,37
441,14	1342,31
441,32	1338,19
441,50	1344,51
441,69	1348,76
441,87	1345,42
442,06	1344,26
442,24	1342,48
442,42	1347,17
442,61	1346,20
442,79	1345,46
442,98	1340,38
443,16	1344,64
443,34	1345,65
443,53	1342,81
443,71	1341,97
443,89	1349,07
444,08	1345,29
444,26	1345,46
444,45	1343,44
444,63	1342,25
444,81	1347,42
445,00	1347,84
445,18	1349,41
445,36	1345,75
445,55	1343,87
445,73	1345,71
445,91	1345,14
446,10	1342,30
446,28	1346,23
446,46	1346,92
446,65	1344,11
446,83	1344,89
447,01	1345,81
447,20	1344,36
447,38	1344,39
447,56	1342,33
447,75	1341,88
447,93	1345,64
448,11	1343,75
448,30	1344,97
448,48	1347,29
448,66	1345,46
448,85	1348,13
449,03	1348,13
449,21	1341,61
449,40	1346,82
449,58	1341,13
449,76	1344,20
449,95	1343,75
450,13	1353,34
450,31	1347,65
450,49	1352,58
450,68	1346,21
450,86	1348,05
451,04	1348,10
451,23	1346,12
451,41	1344,50
451,59	1344,90
451,77	1349,05
451,96	1352,27
452,14	1349,77
452,32	1346,90
452,50	1348,34
452,69	1350,72
452,87	1349,04
453,05	1348,99
453,23	1348,91
453,42	1347,32
453,60	1347,90
453,78	1349,46
453,96	1346,49
454,15	1345,23
454,33	1349,08
454,51	1351,58
454,69	1347,37
454,88	1349,58
455,06	1349,18
455,24	1346,42
455,42	1344,11
455,61	1349,16
455,79	1343,26
455,97	1346,85
456,15	1351,66
456,33	1349,18
456,52	1345,51
456,70	1349,65
456,88	1347,81
457,06	1346,53
457,24	1348,85
457,43	1346,43
457,61	1348,02
457,79	1352,91
457,97	1349,58
458,15	1350,13
458,34	1347,51
458,52	1346,76
458,70	1349,71
458,88	1346,15
459,06	1353,33
459,25	1354,14
459,43	1350,43
459,61	1349,32
459,79	1350,27
459,97	1352,69
460,15	1348,46
460,34	1347,63
460,52	1348,32
460,70	1344,34
460,88	1351,07
461,06	1348,29
461,24	1346,73
461,42	1349,83
461,61	1346,60
461,79	1346,87
461,97	1340,24
462,15	1351,46
462,33	1353,24
462,51	1349,15
462,69	1348,13
462,88	1346,53
463,06	1347,13
463,24	1349,29
463,42	1344,48
463,60	1350,30
463,78	1348,85
463,96	1354,83
464,14	1351,91
464,32	1349,90
464,51	1351,16
464,69	1345,53
464,87	1349,44
465,05	1349,62
465,23	1346,90
465,41	1347,59
465,59	1351,67
465,77	1351,07
465,95	1350,69
466,13	1345,09
466,31	1352,10
466,50	1350,16
466,68	1352,42
466,86	1355,98
467,04	1349,68
467,22	1350,86
467,40	1349,51
467,58	1353,02
467,76	1350,52
467,94	1348,65
468,12	1348,60
468,30	1353,72
468,48	1351,83
468,66	1349,79
468,84	1347,82
469,02	1349,65
469,20	1351,02
469,38	1350,35
469,57	1353,45
469,75	1350,46
469,93	1353,11
470,11	1352,22
470,29	1352,69
470,47	1353,88
470,65	1349,19
470,83	1342,33
471,01	1347,62
471,19	1352,41
471,37	1353,05
471,55	1351,22
471,73	1350,27
471,91	1353,73
472,09	1350,50
472,27	1350,52
472,45	1352,53
472,63	1347,91
472,81	1351,88
472,99	1350,22
473,17	1351,18
473,35	1352,64
473,53	1349,13
473,71	1347,29
473,89	1352,56
474,07	1350,52
474,25	1356,11
474,43	1349,90
474,60	1348,20
474,78	1350,63
474,96	1350,52
475,14	1348,02
475,32	1348,43
475,50	1348,54
475,68	1350,43
475,86	1352,60
476,04	1348,99
476,22	1352,81
476,40	1348,26
476,58	1350,82
476,76	1348,37
476,94	1352,14
477,12	1348,66
477,30	1351,75
477,48	1354,47
477,65	1344,25
477,83	1351,72
478,01	1354,87
478,19	1350,38
478,37	1350,24
478,55	1357,17
478,73	1351,78
478,91	1352,86
479,09	1349,69
479,27	1346,96
479,45	1347,71
479,62	1349,18
479,80	1354,28
479,98	1350,55
480,16	1347,56
480,34	1352,14
480,52	1349,30
480,70	1354,37
480,88	1353,47
481,06	1347,79
481,23	1348,30
481,41	1350,36
481,59	1349,57
481,77	1349,85
481,95	1351,82
482,13	1349,63
482,31	1348,59
482,48	1350,29
482,66	1353,41
482,84	1356,53
483,02	1355,30
483,20	1348,91
483,38	1348,07
483,55	1347,17
483,73	1353,72
483,91	1347,96
484,09	1352,30
484,27	1355,62
484,45	1353,94
484,62	1354,33
484,80	1351,80
484,98	1350,27
485,16	1352,28
485,34	1350,83
485,51	1348,73
485,69	1347,45
485,87	1346,26
486,05	1348,59
486,23	1351,69
486,40	1351,78
486,58	1348,26
486,76	1351,00
486,94	1349,83
487,12	1347,34
487,29	1351,38
487,47	1354,97
487,65	1352,39
487,83	1355,67
488,01	1351,78
488,18	1347,29
488,36	1354,90
488,54	1354,56
488,72	1353,64
488,89	1353,28
489,07	1352,52
489,25	1355,36
489,43	1354,28
489,60	1355,12
489,78	1355,08
489,96	1350,82
490,14	1354,20
490,31	1351,89
490,49	1348,69
490,67	1347,03
490,84	1349,66
491,02	1348,99
491,20	1351,19
491,38	1349,68
491,55	1351,13
491,73	1347,46
491,91	1355,17
492,09	1353,89
492,26	1353,14
492,44	1352,39
492,62	1352,85
492,79	1351,18
492,97	1351,07
493,15	1355,37
493,32	1347,13
493,50	1350,15
493,68	1354,14
493,85	1350,07
494,03	1357,17
494,21	1349,83
494,39	1353,66
494,56	1351,19
494,74	1349,38
494,92	1357,26
495,09	1350,10
495,27	1351,64
495,45	1353,58
495,62	1353,34
495,80	1350,82
495,97	1353,25
496,15	1346,39
496,33	1345,34
496,50	1351,94
496,68	1350,80
496,86	1350,04
497,03	1345,73
497,21	1353,53
497,39	1352,36
497,56	1352,95
497,74	1357,18
497,91	1366,62
498,09	1367,64
498,27	1373,32
498,44	1374,07
498,62	1360,97
498,80	1353,05
498,97	1349,60
499,15	1356,75
499,32	1353,75
499,50	1342,89
499,68	1355,64
499,85	1355,40
500,03	1357,57
500,20	1354,16
500,38	1348,46
500,55	1352,14
500,73	1349,49
500,91	1349,80
501,08	1351,92
501,26	1353,06
501,43	1355,14
501,61	1355,26
501,78	1354,75
501,96	1354,05
502,14	1352,16
502,31	1349,99
502,49	1354,20
502,66	1352,38
502,84	1358,07
503,01	1353,25
503,19	1354,00
503,36	1355,53
503,54	1358,10
503,71	1352,38
503,89	1350,32
504,06	1350,74
504,24	1356,22
504,42	1352,30
504,59	1352,89
504,77	1349,43
504,94	1351,83
505,12	1357,65
505,29	1351,99
505,47	1353,28
505,64	1356,18
505,82	1351,63
505,99	1352,72
506,17	1357,85
506,34	1350,05
506,52	1351,05
506,69	1350,99
506,87	1352,86
507,04	1351,82
507,21	1353,11
507,39	1352,42
507,56	1353,22
507,74	1356,06
507,91	1350,94
508,09	1356,14
508,26	1351,97
508,44	1355,61
508,61	1351,49
508,79	1360,80
508,96	1354,78
509,14	1357,62
509,31	1356,51
509,48	1353,58
509,66	1353,31
509,83	1356,48
510,01	1350,82
510,18	1352,41
510,36	1353,00
510,53	1354,51
510,70	1350,57
510,88	1355,87
511,05	1351,11
511,23	1349,97
511,40	1351,60
511,57	1351,94
511,75	1353,13
511,92	1346,49
512,10	1352,42
512,27	1350,50
512,44	1351,58
512,62	1354,53
512,79	1356,11
512,97	1353,33
513,14	1352,46
513,31	1350,43
513,49	1354,36
513,66	1357,37
513,83	1353,77
514,01	1348,51
514,18	1353,06
514,36	1349,44
514,53	1353,45
514,70	1352,22
514,88	1352,83
515,05	1354,86
515,22	1358,03
515,40	1358,40
515,57	1354,48
515,74	1361,74
515,92	1359,74
516,09	1356,31
516,26	1348,02
516,44	1354,27
516,61	1355,01
516,78	1355,47
516,96	1351,94
517,13	1352,95
517,30	1352,86
517,48	1355,53
517,65	1353,28
517,82	1351,32
517,99	1356,48
518,17	1350,02
518,34	1350,44
518,51	1353,56
518,69	1356,62
518,86	1357,74
519,03	1353,70
519,20	1356,06
519,38	1355,05
519,55	1349,97
519,72	1354,59
519,90	1347,68
520,07	1351,58
520,24	1352,05
520,41	1350,77
520,59	1352,99
520,76	1356,68
520,93	1349,15
521,10	1353,44
521,28	1352,36
521,45	1358,76
521,62	1350,33
521,79	1354,20
521,97	1349,55
522,14	1352,55
522,31	1355,89
522,48	1357,11
522,65	1354,69
522,83	1353,63
523,00	1350,80
523,17	1355,51
523,34	1349,44
523,52	1349,94
523,69	1349,55
523,86	1352,39
524,03	1356,48
524,20	1351,99
524,38	1351,99
524,55	1353,44
524,72	1358,32
524,89	1354,05
525,06	1350,63
525,23	1353,24
525,41	1353,78
525,58	1351,49
525,75	1353,02
525,92	1356,32
526,09	1354,58
526,26	1354,81
526,44	1355,39
526,61	1356,09
526,78	1353,83
526,95	1352,38
527,12	1354,48
527,29	1349,40
527,47	1351,02
527,64	1354,94
527,81	1352,46
527,98	1349,97
528,15	1352,22
528,32	1356,89
528,49	1357,59
528,66	1349,37
528,84	1355,81
529,01	1353,03
529,18	1357,57
529,35	1354,33
529,52	1350,94
529,69	1353,91
529,86	1350,82
530,03	1356,87
530,20	1354,50
530,37	1358,74
530,55	1350,86
530,72	1354,06
530,89	1349,76
531,06	1353,30
531,23	1360,99
531,40	1354,83
531,57	1352,85
531,74	1353,33
531,91	1353,28
532,08	1353,03
532,25	1352,55
532,42	1355,31
532,59	1352,64
532,76	1350,82
532,93	1356,57
533,11	1356,71
533,28	1350,43
533,45	1350,55
533,62	1353,98
533,79	1351,05
533,96	1350,89
534,13	1355,65
534,30	1353,27
534,47	1354,50
534,64	1358,60
534,81	1353,86
534,98	1354,86
535,15	1356,11
535,32	1353,78
535,49	1354,23
535,66	1355,79
535,83	1355,81
536,00	1352,85
536,17	1349,40
536,34	1352,60
536,51	1352,74
536,68	1349,07
536,85	1351,89
537,02	1356,54
537,19	1352,19
537,36	1353,81
537,53	1350,79
537,70	1356,98
537,87	1357,84
538,03	1350,97
538,20	1353,03
538,37	1357,50
538,54	1352,25
538,71	1352,27
538,88	1354,39
539,05	1357,09
539,22	1355,64
539,39	1351,77
539,56	1353,38
539,73	1350,82
539,90	1352,31
540,07	1353,41
540,24	1353,47
540,41	1357,15
540,57	1348,41
540,74	1355,87
540,91	1351,10
541,08	1354,48
541,25	1352,95
541,42	1348,80
541,59	1352,77
541,76	1352,44
541,93	1350,01
542,10	1348,84
542,26	1354,73
542,43	1358,13
542,60	1357,64
542,77	1353,98
542,94	1355,98
543,11	1354,87
543,28	1354,59
543,44	1353,58
543,61	1355,64
543,78	1354,17
543,95	1352,16
544,12	1355,33
544,29	1351,74
544,46	1353,41
544,62	1351,50
544,79	1354,47
544,96	1352,30
545,13	1352,63
545,30	1351,71
545,47	1351,24
545,63	1353,86
545,80	1352,21
545,97	1353,30
546,14	1355,14
546,31	1355,90
546,47	1351,46
546,64	1357,81
546,81	1349,65
546,98	1354,44
547,15	1353,38
547,31	1357,53
547,48	1353,73
547,65	1351,92
547,82	1354,61
547,99	1350,99
548,15	1350,69
548,32	1353,89
548,49	1354,75
548,66	1352,07
548,82	1352,10
548,99	1353,09
549,16	1349,40
549,33	1352,46
549,49	1355,75
549,66	1358,68
549,83	1354,42
550,00	1355,05
550,16	1357,03
550,33	1355,26
550,50	1354,70
550,66	1350,97
550,83	1354,03
551,00	1349,66
551,17	1357,12
551,33	1355,69
551,50	1351,52
551,67	1354,80
551,83	1352,19
552,00	1353,38
552,17	1349,80
552,34	1354,62
552,50	1351,46
552,67	1352,16
552,84	1352,67
553,00	1358,03
553,17	1355,59
553,34	1352,46
553,50	1352,81
553,67	1357,67
553,84	1355,08
554,00	1357,25
554,17	1353,14
554,34	1353,89
554,50	1356,53
554,67	1355,51
554,84	1353,30
555,00	1349,13
555,17	1348,23
555,34	1351,63
555,50	1356,28
555,67	1354,86
555,83	1353,75
556,00	1353,28
556,17	1361,04
556,33	1357,28
556,50	1358,10
556,67	1353,59
556,83	1361,60
557,00	1354,47
557,16	1358,49
557,33	1355,26
557,50	1351,75
557,66	1351,25
557,83	1354,97
557,99	1354,56
558,16	1353,22
558,32	1349,96
558,49	1353,25
558,66	1356,67
558,82	1353,78
558,99	1354,25
559,15	1352,30
559,32	1354,41
559,48	1353,66
559,65	1356,76
559,82	1353,09
559,98	1354,69
560,15	1358,65
560,31	1350,49
560,48	1352,17
560,64	1360,40
560,81	1354,48
560,97	1356,90
561,14	1355,97
561,30	1353,00
561,47	1350,77
561,63	1351,91
561,80	1354,98
561,96	1356,76
562,13	1357,82
562,29	1360,51
562,46	1354,05
562,62	1354,53
562,79	1357,00
562,95	1354,03
563,12	1355,06
563,28	1356,84
563,45	1346,07
563,61	1357,64
563,78	1349,24
563,94	1355,67
564,11	1353,84
564,27	1356,90
564,44	1358,77
564,60	1356,48
564,77	1357,01
564,93	1352,81
565,10	1354,00
565,26	1356,39
565,42	1356,95
565,59	1356,47
565,75	1354,64
565,92	1358,48
566,08	1358,73
566,25	1351,61
566,41	1359,06
566,57	1348,66
566,74	1359,66
566,90	1355,09
567,07	1352,70
567,23	1354,37
567,40	1353,69
567,56	1359,84
567,72	1355,42
567,89	1361,63
568,05	1365,59
568,21	1406,85
568,38	1469,17
568,54	1424,34
568,71	1446,53
568,87	1578,78
569,03	1536,66
569,20	1465,94
569,36	1425,62
569,52	1399,78
569,69	1378,75
569,85	1368,36
570,02	1360,32
570,18	1361,77
570,34	1356,31
570,51	1350,49
570,67	1360,16
570,83	1365,19
571,00	1354,73
571,16	1359,01
571,32	1350,38
571,49	1368,64
571,65	1356,34
571,81	1357,31
571,97	1353,66
572,14	1353,11
572,30	1354,78
572,46	1357,89
572,63	1357,50
572,79	1354,28
572,95	1356,61
573,12	1359,41
573,28	1358,96
573,44	1361,30
573,60	1355,05
573,77	1361,33
573,93	1362,43
574,09	1354,51
574,26	1361,41
574,42	1360,73
574,58	1354,37
574,74	1357,87
574,91	1360,54
575,07	1357,07
575,23	1355,92
575,39	1361,46
575,56	1366,75
575,72	1358,24
575,88	1364,74
576,04	1364,69
576,20	1368,85
576,37	1363,52
576,53	1366,90
576,69	1365,56
576,85	1368,64
577,02	1367,31
577,18	1370,65
577,34	1368,31
577,50	1364,97
577,66	1360,41
577,83	1359,84
577,99	1360,71
578,15	1362,50
578,31	1363,74
578,47	1364,52
578,63	1365,09
578,80	1362,16
578,96	1361,80
579,12	1364,22
579,28	1362,60
579,44	1365,23
579,60	1362,77
579,77	1363,28
579,93	1370,20
580,09	1363,66
580,25	1368,03
580,41	1371,12
580,57	1368,04
580,73	1366,17
580,90	1366,19
581,06	1374,11
581,22	1368,28
581,38	1368,28
581,54	1369,88
581,70	1371,18
581,86	1368,78
582,02	1368,92
582,18	1372,60
582,35	1372,29
582,51	1374,13
582,67	1374,94
582,83	1376,36
582,99	1379,42
583,15	1377,55
583,31	1381,21
583,47	1380,53
583,63	1380,40
583,79	1385,27
583,95	1385,49
584,11	1386,30
584,28	1392,46
584,44	1390,00
584,60	1392,43
584,76	1391,01
584,92	1394,99
585,08	1397,11
585,24	1406,08
585,40	1411,42
585,56	1412,19
585,72	1422,19
585,88	1421,66
586,04	1472,27
586,20	1503,87
586,36	1483,68
586,52	1564,09
586,68	1573,23
586,84	1539,43
587,00	1543,36
587,16	1589,33
587,32	1548,34
587,48	1536,95
587,64	1560,44
587,80	1583,64
587,96	1625,52
588,12	1687,99
588,28	1782,40
588,44	1965,04
588,60	2576,71
588,76	8518,40
588,92	43290,86
589,08	57650,23
589,24	34523,37
589,40	33352,82
589,56	58400,98
589,71	54787,06
589,87	30095,68
590,03	18931,72
590,19	12815,85
590,35	8315,70
590,51	4853,18
590,67	2988,90
590,83	2227,24
590,99	1874,74
591,15	1685,92
591,31	1589,63
591,47	1545,55
591,62	1516,43
591,78	1494,93
591,94	1481,87
592,10	1466,95
592,26	1462,07
592,42	1446,62
592,58	1440,54
592,74	1438,62
592,90	1433,64
593,05	1419,82
593,21	1413,54
593,37	1414,73
593,53	1413,15
593,69	1408,52
593,85	1394,69
594,01	1401,04
594,16	1397,92
594,32	1390,45
594,48	1391,37
594,64	1386,55
594,80	1384,18
594,96	1381,49
595,11	1382,59
595,27	1380,87
595,43	1377,70
595,59	1377,98
595,75	1381,54
595,91	1376,19
596,06	1376,09
596,22	1373,44
596,38	1374,88
596,54	1373,27
596,69	1368,75
596,85	1370,85
597,01	1368,87
597,17	1371,05
597,33	1368,43
597,48	1369,01
597,64	1367,56
597,80	1365,69
597,96	1366,40
598,11	1365,19
598,27	1360,12
598,43	1367,53
598,59	1368,48
598,74	1371,27
598,90	1365,56
599,06	1363,28
599,22	1366,70
599,37	1363,07
599,53	1363,21
599,69	1365,70
599,85	1361,33
600,00	1363,67
600,16	1362,38
600,32	1362,58
600,47	1362,10
600,63	1365,78
600,79	1358,68
600,94	1359,34
601,10	1360,10
601,26	1360,19
601,42	1352,95
601,57	1358,70
601,73	1360,15
601,89	1362,66
602,04	1359,45
602,20	1359,55
602,36	1355,01
602,51	1360,80
602,67	1358,03
602,83	1362,72
602,98	1361,79
603,14	1359,49
603,29	1361,13
603,45	1362,74
603,61	1361,57
603,76	1363,32
603,92	1360,66
604,08	1356,79
604,23	1358,74
604,39	1360,09
604,54	1359,31
604,70	1359,59
604,86	1358,52
605,01	1359,51
605,17	1360,37
605,32	1361,38
605,48	1355,25
605,64	1358,81
605,79	1358,20
605,95	1358,85
606,10	1352,14
606,26	1358,56
606,42	1355,92
606,57	1356,47
606,73	1360,60
606,88	1357,51
607,04	1358,54
607,19	1355,14
607,35	1359,98
607,50	1356,53
607,66	1355,34
607,82	1354,12
607,97	1350,61
608,13	1352,39
608,28	1355,48
608,44	1362,69
608,59	1359,77
608,75	1354,62
608,90	1357,95
609,06	1354,55
609,21	1355,09
609,37	1357,09
609,52	1357,98
609,68	1355,17
609,83	1356,20
609,99	1351,21
610,14	1353,73
610,30	1357,60
610,45	1352,81
610,61	1358,03
610,76	1355,75
610,92	1359,57
611,07	1354,56
611,22	1357,59
611,38	1355,03
611,53	1353,89
611,69	1354,19
611,84	1360,60
612,00	1354,36
612,15	1354,86
612,31	1356,23
612,46	1354,73
612,61	1354,42
612,77	1356,25
612,92	1355,45
613,08	1352,16
613,23	1357,98
613,38	1356,18
613,54	1354,25
613,69	1355,47
613,85	1353,98
614,00	1353,86
614,15	1355,34
614,31	1349,99
614,46	1355,47
614,62	1353,97
614,77	1355,89
614,92	1353,27
615,08	1365,05
615,23	1378,42
615,38	1366,53
615,54	1363,58
615,69	1371,30
615,85	1399,20
616,00	1388,76
616,15	1374,67
616,31	1364,42
616,46	1366,00
616,61	1363,44
616,77	1356,87
616,92	1356,75
617,07	1355,19
617,22	1358,07
617,38	1352,99
617,53	1349,77
617,68	1353,63
617,84	1358,62
617,99	1359,52
618,14	1353,89
618,30	1357,03
618,45	1354,83
618,60	1357,82
618,75	1355,47
618,91	1352,77
619,06	1351,27
619,21	1357,26
619,37	1356,81
619,52	1356,98
619,67	1358,07
619,82	1356,43
619,98	1356,29
620,13	1354,90
620,28	1349,93
620,43	1349,43
620,59	1353,47
620,74	1352,55
620,89	1356,78
621,04	1351,99
621,19	1351,04
621,35	1358,73
621,50	1361,55
621,65	1350,05
621,80	1350,11
621,95	1350,41
622,11	1354,95
622,26	1353,64
622,41	1353,17
622,56	1350,88
622,71	1351,08
622,87	1354,66
623,02	1351,86
623,17	1355,26
623,32	1352,33
623,47	1357,45
623,62	1353,30
623,78	1357,43
623,93	1359,16
624,08	1359,46
624,23	1357,79
624,38	1354,70
624,53	1351,92
624,68	1357,09
624,84	1354,23
624,99	1354,55
625,14	1357,31
625,29	1356,54
625,44	1353,66
625,59	1353,30
625,74	1353,28
625,89	1352,91
626,05	1353,75
626,20	1349,41
626,35	1353,58
626,50	1353,61
626,65	1353,20
626,80	1353,52
626,95	1354,58
627,10	1351,60
627,25	1355,98
627,40	1357,09
627,55	1354,64
627,70	1352,39
627,85	1349,29
628,00	1352,74
628,16	1357,73
628,31	1355,20
628,46	1359,15
628,61	1354,55
628,76	1357,87
628,91	1352,05
629,06	1347,51
629,21	1351,85
629,36	1354,56
629,51	1355,25
629,66	1352,89
629,81	1353,80
629,96	1352,99
630,11	1352,50
630,26	1352,11
630,41	1349,41
630,56	1351,75
630,71	1353,88
630,86	1352,63
631,01	1351,80
631,16	1356,23
631,31	1353,61
631,46	1357,07
631,61	1355,26
631,76	1353,72
631,91	1355,20
632,05	1352,46
632,20	1348,09
632,35	1357,51
632,50	1353,50
632,65	1353,89
632,80	1354,03
632,95	1352,08
633,10	1353,11
633,25	1354,39
633,40	1360,77
633,55	1350,74
633,70	1355,50
633,85	1354,11
633,99	1352,80
634,14	1355,05
634,29	1357,42
634,44	1355,98
634,59	1358,31
634,74	1347,91
634,89	1353,38
635,04	1350,46
635,19	1356,64
635,33	1353,03
635,48	1352,97
635,63	1349,44
635,78	1350,35
635,93	1355,84
636,08	1352,30
636,23	1358,01
636,37	1348,68
636,52	1350,86
636,67	1354,87
636,82	1354,23
636,97	1349,93
637,11	1355,56
637,26	1356,86
637,41	1354,72
637,56	1346,93
637,71	1353,25
637,86	1357,40
638,00	1356,95
638,15	1353,14
638,30	1346,14
638,45	1353,56
638,59	1353,22
638,74	1355,93
638,89	1351,49
639,04	1358,32
639,19	1353,31
639,33	1355,50
639,48	1358,18
639,63	1354,39
639,78	1352,91
639,92	1354,00
640,07	1356,79
640,22	1353,30
640,37	1351,69
640,51	1348,46
640,66	1350,07
640,81	1354,00
640,95	1353,38
641,10	1354,51
641,25	1353,63
641,40	1355,17
641,54	1351,78
641,69	1355,79
641,84	1353,75
641,98	1347,82
642,13	1352,08
642,28	1349,58
642,42	1350,47
642,57	1354,73
642,72	1354,89
642,86	1357,85
643,01	1354,58
643,16	1352,35
643,30	1350,96
643,45	1351,99
643,60	1353,84
643,74	1351,27
643,89	1353,33
644,04	1349,55
644,18	1353,72
644,33	1355,79
644,48	1351,50
644,62	1352,33
644,77	1352,19
644,91	1359,15
645,06	1355,26
645,21	1351,71
645,35	1349,21
645,50	1353,78
645,64	1356,31
645,79	1353,08
645,94	1346,76
646,08	1355,40
646,23	1349,86
646,37	1350,18
646,52	1351,77
646,66	1358,85
646,81	1352,44
646,96	1350,57
647,10	1352,97
647,25	1356,48
647,39	1354,76
647,54	1353,73
647,68	1354,64
647,83	1351,99
647,97	1351,14
648,12	1355,89
648,26	1348,26
648,41	1352,41
648,55	1354,55
648,70	1355,06
648,85	1352,99
648,99	1351,92
649,14	1352,03
649,28	1350,58
649,42	1351,58
649,57	1353,13
649,71	1351,97
649,86	1351,14
650,00	1355,48
650,15	1353,31
650,29	1349,35
650,44	1354,09
650,58	1353,77
650,73	1353,39
650,87	1350,26
651,02	1353,36
651,16	1354,11
651,31	1350,66
651,45	1350,99
651,59	1351,82
651,74	1352,36
651,88	1353,73
652,03	1352,81
652,17	1357,21
652,31	1351,60
652,46	1352,11
652,60	1354,90
652,75	1354,06
652,89	1346,01
653,04	1353,56
653,18	1354,02
653,32	1353,53
653,47	1354,86
653,61	1355,62
653,75	1355,54
653,90	1353,67
654,04	1351,02
654,18	1355,75
654,33	1354,97
654,47	1354,09
654,62	1352,33
654,76	1353,80
654,90	1356,79
655,05	1355,05
655,19	1357,42
655,33	1352,39
655,48	1354,16
655,62	1350,15
655,76	1350,82
655,91	1354,78
656,05	1351,61
656,19	1347,77
656,33	1352,17
656,48	1355,00
656,62	1349,74
656,76	1354,97
656,91	1349,41
657,05	1353,48
657,19	1352,78
657,33	1353,25
657,48	1350,55
657,62	1347,90
657,76	1348,94
657,90	1352,42
658,05	1350,75
658,19	1354,23
658,33	1348,74
658,47	1355,76
658,62	1356,18
658,76	1353,45
658,90	1352,03
659,04	1351,27
659,19	1352,52
659,33	1356,22
659,47	1353,67
659,61	1353,16
659,75	1354,20
659,90	1350,57
660,04	1351,36
660,18	1352,81
660,32	1353,59
660,46	1357,35
660,61	1355,50
660,75	1349,07
660,89	1351,92
661,03	1350,71
661,17	1352,94
661,31	1352,95
661,46	1352,21
661,60	1351,49
661,74	1360,01
661,88	1358,28
662,02	1353,52
662,16	1351,77
662,30	1354,20
662,45	1353,28
662,59	1351,07
662,73	1349,46
662,87	1351,24
663,01	1357,31
663,15	1350,68
663,29	1351,32
663,43	1354,09
663,57	1353,66
663,71	1347,79
663,86	1349,85
664,00	1352,63
664,14	1355,05
664,28	1350,60
664,42	1352,64
664,56	1351,78
664,70	1352,95
664,84	1349,58
664,98	1355,51
665,12	1355,86
665,26	1348,21
665,40	1351,92
665,54	1355,61
665,68	1354,75
665,82	1350,18
665,96	1350,29
666,10	1352,97
666,24	1347,45
666,38	1352,61
666,52	1360,04
666,66	1352,44
666,80	1353,64
666,94	1350,43
667,08	1353,63
667,22	1355,28
667,36	1357,84
667,50	1358,52
667,64	1353,81
667,78	1354,06
667,92	1351,24
668,06	1349,44
668,20	1352,02
668,34	1351,67
668,48	1360,05
668,62	1354,27
668,76	1355,48
668,90	1351,41
669,04	1353,44
669,18	1354,20
669,32	1356,11
669,46	1355,58
669,59	1349,69
669,73	1351,74
669,87	1350,04
670,01	1353,75
670,15	1353,81
670,29	1356,29
670,43	1350,99
670,57	1353,78
670,71	1349,19
670,85	1354,50
670,98	1353,13
671,12	1353,41
671,26	1355,67
671,40	1355,93
671,54	1353,80
671,68	1353,59
671,82	1351,99
671,95	1349,13
672,09	1349,12
672,23	1350,63
672,37	1348,68
672,51	1350,58
672,65	1352,64
672,78	1350,15
672,92	1353,88
673,06	1352,52
673,20	1353,16
673,34	1359,01
673,47	1356,00
673,61	1356,48
673,75	1355,90
673,89	1360,79
674,03	1354,67
674,16	1352,47
674,30	1358,18
674,44	1355,58
674,58	1347,52
674,71	1350,43
674,85	1354,58
674,99	1360,43
675,13	1357,12
675,26	1351,96
675,40	1356,11
675,54	1358,35
675,68	1352,66
675,81	1353,53
675,95	1347,93
676,09	1351,69
676,23	1351,27
676,36	1353,22
676,50	1347,46
676,64	1354,64
676,77	1348,59
676,91	1353,33
677,05	1350,74
677,18	1350,52
677,32	1357,87
677,46	1350,33
677,59	1353,08
677,73	1353,55
677,87	1354,61
678,00	1349,04
678,14	1349,57
678,28	1353,91
678,41	1355,42
678,55	1352,60
678,69	1353,25
678,82	1353,33
678,96	1352,77
679,10	1347,81
679,23	1356,28
679,37	1352,39
679,50	1355,59
679,64	1356,40
679,78	1353,84
679,91	1351,28
680,05	1351,50
680,18	1354,39
680,32	1351,64
680,46	1354,59
680,59	1352,72
680,73	1351,86
680,86	1354,37
681,00	1356,92
681,13	1353,41
681,27	1351,92
681,41	1354,89
681,54	1348,93
681,68	1352,67
681,81	1353,56
681,95	1352,38
682,08	1352,63
682,22	1353,86
682,35	1354,42
682,49	1353,36
682,62	1349,57
682,76	1352,69
682,89	1352,95
683,03	1348,71
683,16	1353,09
683,30	1353,11
683,43	1351,88
683,57	1356,15
683,70	1353,39
683,84	1356,15
683,97	1351,55
684,11	1353,09
684,24	1346,59
684,38	1351,71
684,51	1349,41
684,65	1353,45
684,78	1354,58
684,92	1354,33
685,05	1352,70
685,18	1356,26
685,32	1355,67
685,45	1350,91
685,59	1352,27
685,72	1358,73
685,85	1354,90
685,99	1353,53
686,12	1348,79
686,26	1352,55
686,39	1354,53
686,52	1351,63
686,66	1353,11
686,79	1357,54
686,93	1355,86
687,06	1352,46
687,19	1352,25
687,33	1350,49
687,46	1352,03
687,59	1354,27
687,73	1352,94
687,86	1351,39
688,00	1351,32
688,13	1355,56
688,26	1349,99
688,40	1354,67
688,53	1353,05
688,66	1352,33
688,79	1351,14
688,93	1349,63
689,06	1357,17
689,19	1354,16
689,33	1350,77
689,46	1351,19
689,59	1352,47
689,73	1350,33
689,86	1352,08
689,99	1353,19
690,12	1352,55
690,26	1353,83
690,39	1355,28
690,52	1353,11
690,65	1351,92
690,79	1351,22
690,92	1351,50
691,05	1357,78
691,18	1351,55
691,32	1354,80
691,45	1351,55
691,58	1356,67
691,71	1357,28
691,85	1354,97
691,98	1357,00
692,11	1353,25
692,24	1357,00
692,37	1358,77
692,51	1356,20
692,64	1353,00
692,77	1354,41
692,90	1351,38
693,03	1354,86
693,17	1349,38
693,30	1356,50
693,43	1352,74
693,56	1356,76
693,69	1354,39
693,82	1350,38
693,95	1360,99
694,09	1434,11
694,22	1518,48
694,35	1514,39
694,48	1445,56
694,61	1416,13
694,74	1386,88
694,87	1372,16
695,01	1370,85
695,14	1358,70
695,27	1355,30
695,40	1357,11
695,53	1355,12
695,66	1355,05
695,79	1354,06
695,92	1357,21
696,05	1354,59
696,18	1353,30
696,31	1352,81
696,44	1355,54
696,58	1353,72
696,71	1348,91
696,84	1353,53
696,97	1353,27
697,10	1355,22
697,23	1354,51
697,36	1359,29
697,49	1349,10
697,62	1353,89
697,75	1353,08
697,88	1356,56
698,01	1355,51
698,14	1349,51
698,27	1353,61
698,40	1355,34
698,53	1350,29
698,66	1346,73
698,79	1353,69
698,92	1352,25
699,05	1352,10
699,18	1350,74
699,31	1349,85
699,44	1349,80
699,57	1351,78
699,70	1355,31
699,83	1355,15
699,96	1347,38
700,08	1353,34
700,21	1352,13
700,34	1356,47
700,47	1352,38
700,60	1354,37
700,73	1353,91
700,86	1357,07
700,99	1353,27
701,12	1352,85
701,25	1354,67
701,38	1356,20
701,50	1353,83
701,63	1354,47
701,76	1349,90
701,89	1355,67
702,02	1354,76
702,15	1349,26
702,28	1352,27
702,41	1353,66
702,53	1349,51
702,66	1350,77
702,79	1352,13
702,92	1353,78
703,05	1352,60
703,18	1356,51
703,30	1352,63
703,43	1354,37
703,56	1354,67
703,69	1368,23
703,82	1423,98
703,95	1440,71
704,07	1432,14
704,20	1386,77
704,33	1380,96
704,46	1367,54
704,59	1363,56
704,71	1354,36
704,84	1355,79
704,97	1354,42
705,10	1353,64
705,22	1350,72
705,35	1355,47
705,48	1353,11
705,61	1351,38
705,73	1354,17
705,86	1353,98
705,99	1347,84
706,12	1357,45
706,24	1347,51
706,37	1354,36
706,50	1351,44
706,62	1352,66
706,75	1355,84
706,88	1348,62
707,01	1353,08
707,13	1353,27
707,26	1351,46
707,39	1350,58
707,51	1351,30
707,64	1352,33
707,77	1350,05
707,89	1356,67
708,02	1352,52
708,15	1355,09
708,27	1352,49
708,40	1353,61
708,53	1349,16
708,65	1350,41
708,78	1352,27
708,90	1351,50
709,03	1349,54
709,16	1351,57
709,28	1353,38
709,41	1354,51
709,54	1354,05
709,66	1355,86
709,79	1359,59
709,91	1349,43
710,04	1355,33
710,17	1353,34
710,29	1350,82
710,42	1360,29
710,54	1354,05
710,67	1351,21
710,79	1353,97
710,92	1349,85
711,04	1351,47
711,17	1356,79
711,30	1355,79
711,42	1356,29
711,55	1364,31
711,67	1358,96
711,80	1356,48
711,92	1353,72
712,05	1355,51
712,17	1351,47
712,30	1356,62
712,42	1352,97
712,55	1351,13
712,67	1353,84
712,80	1348,73
712,92	1354,95
713,05	1355,00
713,17	1351,63
713,30	1351,38
713,42	1357,17
713,55	1349,49
713,67	1352,00
713,79	1352,27
713,92	1355,61
714,04	1355,31
714,17	1355,19
714,29	1347,48
714,42	1349,38
714,54	1351,30
714,66	1353,98
714,79	1356,59
714,91	1354,95
715,04	1352,47
715,16	1351,24
715,29	1354,48
715,41	1353,83
715,53	1351,24
715,66	1351,91
715,78	1354,51
715,90	1350,43
716,03	1351,96
716,15	1353,55
716,28	1346,92
716,40	1354,09
716,52	1352,50
716,65	1350,43
716,77	1350,08
716,89	1350,74
717,02	1351,24
717,14	1350,21
717,26	1354,41
717,39	1350,80
717,51	1352,52
717,63	1352,38
717,75	1349,82
717,88	1354,72
718,00	1350,69
718,12	1357,65
718,25	1351,27
718,37	1353,13
718,49	1350,79
718,61	1351,61
718,74	1347,99
718,86	1355,93
718,98	1349,60
719,10	1354,14
719,23	1351,14
719,35	1352,80
719,47	1352,27
719,59	1357,43
719,72	1350,21
719,84	1357,90
719,96	1350,82
720,08	1353,86
720,21	1353,66
720,33	1350,40
720,45	1355,17
720,57	1349,62
720,69	1355,34
720,82	1350,63
720,94	1354,53
721,06	1356,42
721,18	1354,20
721,30	1356,29
721,42	1353,69
721,55	1352,77
721,67	1352,39
721,79	1353,19
721,91	1350,79
722,03	1348,98
722,15	1349,88
722,27	1351,05
722,40	1351,05
722,52	1351,05
>>>>>End Processed Spectral Data<<<<<
