SpectraSuite Datei
++++++++++++++++++++++++++++++++++++
Datum: Wed Sep 18 16:54:54 CEST 2024
Benutzer: Student
Dark-Spektrum vorhanden: Nein
Referenz-Spektrum vorhanden: Nein
Zahl der probierten Teilspektren: 1
Spektrometer: USB2+H15728
Integrationszeit (usec): 100000 (USB2+H15728)
Spektren Durchschnitt berechnet: 75 (USB2+H15728)
Boxcar Glättung: 0 (USB2+H15728)
Dunkelstromkorrektur: Nein (USB2+H15728)
Puls/Lampe aktiviert: Nein (USB2+H15728)
Correct for Detector Non-linearity: Nein (USB2+H15728)
Streulichtkorrektur: Nein (USB2+H15728)
Anzahl Pixel in verarbeitetem Spektrum: 2048
>>>>>Begin Processed Spectral Data<<<<<
0,00	1067,60
1,00	1067,60
2,00	1067,60
3,00	1045,72
4,00	1050,49
5,00	1051,15
6,00	1051,56
7,00	1054,65
8,00	1071,53
9,00	1086,70
10,00	1098,30
11,00	1120,34
12,00	1126,58
13,00	1166,77
14,00	1159,66
15,00	1176,10
16,00	1190,99
17,00	1205,31
18,00	1221,45
19,00	1256,06
20,00	1254,68
21,00	1271,91
22,00	1276,53
23,00	1308,77
24,00	1302,99
25,00	1328,68
26,00	1346,62
27,00	1359,63
28,00	1366,28
29,00	1364,94
30,00	1379,73
31,00	1390,12
32,00	1404,04
33,00	1398,99
34,00	1407,75
35,00	1408,19
36,00	1418,61
37,00	1402,95
38,00	1414,49
39,00	1439,18
40,00	1433,06
41,00	1465,96
42,00	1477,38
43,00	1503,50
44,00	1521,19
45,00	1546,06
46,00	1578,05
47,00	1611,63
48,00	1627,55
49,00	1670,74
50,00	1733,03
51,00	1736,27
52,00	1527,78
53,00	1471,26
54,00	1434,75
55,00	1418,05
56,00	1424,04
57,00	1414,03
58,00	1406,04
59,00	1407,72
60,00	1399,61
61,00	1405,57
62,00	1418,30
63,00	1407,38
64,00	1399,42
65,00	1409,03
66,00	1417,77
67,00	1411,78
68,00	1410,28
69,00	1385,94
70,00	1423,98
71,00	1388,59
72,00	1380,39
73,00	1380,32
74,00	1374,74
75,00	1377,36
76,00	1383,76
77,00	1382,13
78,00	1384,10
79,00	1378,58
80,00	1380,54
81,00	1374,14
82,00	1378,98
83,00	1374,55
84,00	1392,87
85,00	1393,71
86,00	1401,64
87,00	1397,39
88,00	1372,93
89,00	1374,33
90,00	1375,17
91,00	1393,77
92,00	1381,57
93,00	1390,72
94,00	1376,48
95,00	1372,37
96,00	1382,45
97,00	1420,39
98,00	1389,84
99,00	1383,16
100,00	1383,41
101,00	1391,84
102,00	1383,88
103,00	1379,92
104,00	1374,58
105,00	1390,65
106,00	1387,44
107,00	1387,56
108,00	1396,68
109,00	1377,58
110,00	1406,72
111,00	1391,65
112,00	1385,29
113,00	1392,84
114,00	1376,17
115,00	1383,72
116,00	1386,13
117,00	1382,23
118,00	1384,35
119,00	1406,10
120,00	1385,41
121,00	1390,84
122,00	1386,03
123,00	1379,67
124,00	1379,14
125,00	1382,26
126,00	1394,02
127,00	1392,18
128,00	1382,66
129,00	1397,74
130,00	1386,69
131,00	1387,66
132,00	1385,25
133,00	1398,89
134,00	1377,17
135,00	1390,53
136,00	1379,48
137,00	1393,68
138,00	1402,51
139,00	1392,71
140,00	1395,74
141,00	1399,48
142,00	1382,32
143,00	1383,16
144,00	1392,68
145,00	1386,66
146,00	1383,57
147,00	1406,88
148,00	1431,81
149,00	1394,12
150,00	1385,04
151,00	1396,58
152,00	1387,75
153,00	1382,13
154,00	1389,59
155,00	1391,28
156,00	1396,33
157,00	1386,53
158,00	1390,72
159,00	1398,74
160,00	1400,92
161,00	1399,55
162,00	1387,16
163,00	1386,00
164,00	1384,88
165,00	1388,34
166,00	1388,34
167,00	1388,22
168,00	1387,44
169,00	1399,08
170,00	1399,08
171,00	1386,69
172,00	1405,26
173,00	1382,91
174,00	1389,62
175,00	1389,59
176,00	1392,31
177,00	1392,96
178,00	1401,42
179,00	1386,88
180,00	1402,11
181,00	1397,64
182,00	1396,18
183,00	1421,55
184,00	1395,05
185,00	1400,08
186,00	1393,96
187,00	1401,98
188,00	1410,19
189,00	1404,76
190,00	1399,83
191,00	1398,83
192,00	1411,00
193,00	1411,16
194,00	1417,87
195,00	1423,39
196,00	1431,66
197,00	1425,64
198,00	1444,67
199,00	1429,57
200,00	1432,47
201,00	1453,13
202,00	1453,10
203,00	1469,48
204,00	1478,38
205,00	1500,41
206,00	1515,29
207,00	1544,04
208,00	1606,01
209,00	1752,75
210,00	1897,80
211,00	2019,91
212,00	2100,37
213,00	2161,63
214,00	2250,44
215,00	2389,72
216,00	2546,38
217,00	2857,33
218,00	2271,16
219,00	1753,03
220,00	1607,60
221,00	1537,89
222,00	1512,70
223,00	1488,33
224,00	1475,72
225,00	1463,43
226,00	1460,24
227,00	1440,86
228,00	1436,43
229,00	1441,99
230,00	1431,57
231,00	1435,53
232,00	1425,11
233,00	1427,60
234,00	1426,10
235,00	1420,74
236,00	1432,00
237,00	1411,75
238,00	1409,56
239,00	1408,32
240,00	1411,37
241,00	1420,24
242,00	1407,69
243,00	1412,12
244,00	1404,01
245,00	1402,51
246,00	1403,54
247,00	1398,36
248,00	1406,85
249,00	1414,37
250,00	1410,00
251,00	1401,14
252,00	1412,65
253,00	1400,64
254,00	1414,53
255,00	1399,92
256,00	1397,39
257,00	1404,29
258,00	1394,15
259,00	1399,61
260,00	1393,93
261,00	1402,64
262,00	1395,71
263,00	1398,52
264,00	1408,60
265,00	1399,27
266,00	1396,49
267,00	1392,81
268,00	1403,88
269,00	1407,16
270,00	1400,36
271,00	1407,47
272,00	1411,37
273,00	1398,30
274,00	1399,64
275,00	1399,52
276,00	1398,08
277,00	1400,48
278,00	1397,74
279,00	1401,82
280,00	1395,05
281,00	1396,64
282,00	1394,80
283,00	1403,98
284,00	1398,55
285,00	1404,76
286,00	1402,23
287,00	1401,39
288,00	1398,95
289,00	1401,04
290,00	1403,35
291,00	1397,64
292,00	1408,82
293,00	1397,71
294,00	1403,14
295,00	1403,29
296,00	1391,43
297,00	1395,86
298,00	1398,55
299,00	1402,70
300,00	1399,70
301,00	1400,89
302,00	1396,30
303,00	1411,62
304,00	1402,48
305,00	1409,56
306,00	1399,55
307,00	1392,53
308,00	1399,36
309,00	1397,74
310,00	1396,99
311,00	1403,70
312,00	1400,58
313,00	1415,68
314,00	1401,29
315,00	1393,55
316,00	1396,33
317,00	1393,71
318,00	1395,46
319,00	1397,21
320,00	1392,87
321,00	1406,35
322,00	1397,80
323,00	1405,23
324,00	1392,40
325,00	1402,04
326,00	1393,68
327,00	1401,58
328,00	1400,80
329,00	1414,09
330,00	1402,11
331,00	1401,92
332,00	1395,05
333,00	1403,79
334,00	1403,54
335,00	1401,33
336,00	1396,15
337,00	1393,52
338,00	1415,24
339,00	1398,77
340,00	1394,58
341,00	1395,55
342,00	1389,65
343,00	1411,44
344,00	1417,12
345,00	1400,95
346,00	1398,83
347,00	1406,26
348,00	1390,12
349,00	1404,32
350,00	1393,68
351,00	1387,31
352,00	1417,21
353,00	1408,75
354,00	1396,80
355,00	1397,14
356,00	1406,63
357,00	1408,97
358,00	1403,63
359,00	1399,80
360,00	1401,95
361,00	1397,08
362,00	1407,75
363,00	1407,63
364,00	1406,54
365,00	1407,85
366,00	1406,32
367,00	1406,63
368,00	1401,29
369,00	1401,64
370,00	1397,30
371,00	1397,77
372,00	1408,28
373,00	1396,39
374,00	1398,05
375,00	1399,14
376,00	1394,24
377,00	1452,72
378,00	1400,70
379,00	1394,12
380,00	1402,01
381,00	1426,17
382,00	1409,16
383,00	1394,37
384,00	1403,26
385,00	1398,64
386,00	1399,08
387,00	1405,63
388,00	1401,73
389,00	1413,25
390,00	1407,01
391,00	1398,99
392,00	1393,34
393,00	1401,17
394,00	1402,73
395,00	1412,75
396,00	1401,95
397,00	1394,12
398,00	1399,89
399,00	1400,45
400,00	1408,44
401,00	1399,77
402,00	1403,85
403,00	1394,43
404,00	1404,60
405,00	1414,37
406,00	1403,76
407,00	1407,04
408,00	1399,55
409,00	1408,28
410,00	1410,59
411,00	1401,61
412,00	1399,17
413,00	1401,29
414,00	1411,16
415,00	1408,69
416,00	1410,84
417,00	1399,30
418,00	1397,74
419,00	1400,14
420,00	1404,66
421,00	1405,98
422,00	1407,13
423,00	1403,85
424,00	1398,86
425,00	1397,58
426,00	1398,83
427,00	1395,99
428,00	1397,14
429,00	1404,82
430,00	1395,80
431,00	1398,52
432,00	1399,20
433,00	1403,95
434,00	1411,87
435,00	1408,91
436,00	1417,49
437,00	1398,61
438,00	1403,01
439,00	1400,80
440,00	1409,94
441,00	1404,26
442,00	1411,03
443,00	1404,32
444,00	1399,64
445,00	1399,67
446,00	1405,76
447,00	1402,39
448,00	1407,04
449,00	1407,60
450,00	1400,61
451,00	1410,09
452,00	1395,52
453,00	1399,52
454,00	1406,04
455,00	1398,61
456,00	1392,71
457,00	1428,91
458,00	1399,36
459,00	1396,89
460,00	1394,68
461,00	1397,46
462,00	1400,01
463,00	1395,74
464,00	1411,53
465,00	1403,23
466,00	1403,76
467,00	1409,72
468,00	1401,33
469,00	1405,85
470,00	1416,84
471,00	1403,35
472,00	1421,86
473,00	1399,48
474,00	1398,61
475,00	1399,45
476,00	1406,23
477,00	1407,94
478,00	1409,69
479,00	1408,47
480,00	1405,44
481,00	1398,02
482,00	1402,07
483,00	1420,24
484,00	1411,12
485,00	1412,12
486,00	1400,98
487,00	1399,30
488,00	1413,31
489,00	1401,76
490,00	1401,67
491,00	1409,25
492,00	1409,66
493,00	1408,66
494,00	1412,19
495,00	1414,93
496,00	1407,79
497,00	1403,42
498,00	1407,32
499,00	1399,89
500,00	1399,86
501,00	1400,36
502,00	1402,39
503,00	1400,76
504,00	1404,54
505,00	1405,91
506,00	1415,87
507,00	1413,78
508,00	1411,94
509,00	1401,92
510,00	1399,86
511,00	1414,31
512,00	1407,91
513,00	1410,59
514,00	1437,53
515,00	1405,07
516,00	1405,48
517,00	1412,40
518,00	1409,69
519,00	1422,23
520,00	1432,81
521,00	1417,49
522,00	1428,57
523,00	1448,48
524,00	1449,60
525,00	1444,05
526,00	1435,25
527,00	1422,73
528,00	1417,65
529,00	1415,24
530,00	1411,84
531,00	1415,09
532,00	1403,35
533,00	1417,27
534,00	1401,42
535,00	1404,29
536,00	1409,66
537,00	1406,41
538,00	1413,31
539,00	1409,91
540,00	1398,14
541,00	1415,28
542,00	1405,48
543,00	1415,34
544,00	1418,52
545,00	1418,83
546,00	1410,81
547,00	1422,11
548,00	1412,19
549,00	1411,06
550,00	1418,58
551,00	1411,00
552,00	1434,65
553,00	1415,59
554,00	1416,74
555,00	1411,50
556,00	1408,13
557,00	1409,81
558,00	1395,40
559,00	1410,44
560,00	1413,22
561,00	1412,62
562,00	1409,60
563,00	1408,25
564,00	1409,03
565,00	1412,28
566,00	1408,38
567,00	1408,13
568,00	1403,85
569,00	1404,32
570,00	1410,41
571,00	1410,09
572,00	1403,29
573,00	1402,23
574,00	1402,70
575,00	1410,06
576,00	1420,86
577,00	1398,86
578,00	1397,05
579,00	1402,14
580,00	1403,42
581,00	1403,85
582,00	1397,05
583,00	1409,81
584,00	1409,63
585,00	1417,62
586,00	1396,96
587,00	1409,69
588,00	1403,79
589,00	1399,45
590,00	1405,54
591,00	1396,74
592,00	1408,04
593,00	1407,50
594,00	1406,32
595,00	1400,70
596,00	1415,96
597,00	1403,92
598,00	1408,88
599,00	1412,47
600,00	1407,13
601,00	1725,66
602,00	1432,60
603,00	1408,57
604,00	1403,10
605,00	1405,88
606,00	1405,26
607,00	1402,11
608,00	1403,39
609,00	1407,10
610,00	1412,25
611,00	1413,22
612,00	1417,99
613,00	1403,98
614,00	1405,60
615,00	1405,01
616,00	1408,35
617,00	1416,09
618,00	1411,28
619,00	1409,69
620,00	1407,35
621,00	1413,62
622,00	1397,33
623,00	1412,68
624,00	1408,57
625,00	1423,73
626,00	1403,70
627,00	1412,78
628,00	1400,61
629,00	1404,88
630,00	1403,70
631,00	1401,14
632,00	1407,13
633,00	1397,30
634,00	1411,78
635,00	1424,79
636,00	1409,97
637,00	1412,75
638,00	1408,00
639,00	1412,15
640,00	1407,13
641,00	1408,10
642,00	1411,34
643,00	1404,66
644,00	1406,26
645,00	1410,66
646,00	1409,60
647,00	1407,13
648,00	1400,39
649,00	1405,69
650,00	1411,75
651,00	1412,28
652,00	1402,32
653,00	1408,66
654,00	1398,74
655,00	1404,23
656,00	1419,77
657,00	1410,06
658,00	1414,31
659,00	1413,18
660,00	1442,39
661,00	1414,37
662,00	1410,03
663,00	1411,12
664,00	1409,56
665,00	1404,51
666,00	1414,15
667,00	1403,57
668,00	1404,91
669,00	1407,38
670,00	1402,61
671,00	1409,78
672,00	1406,38
673,00	1411,16
674,00	1418,18
675,00	1410,75
676,00	1413,78
677,00	1408,66
678,00	1406,57
679,00	1410,41
680,00	1408,82
681,00	1411,66
682,00	1410,19
683,00	1403,95
684,00	1407,50
685,00	1413,62
686,00	1411,50
687,00	1415,62
688,00	1409,10
689,00	1426,04
690,00	1419,58
691,00	1408,13
692,00	1411,75
693,00	1409,60
694,00	1404,20
695,00	1413,47
696,00	1409,88
697,00	1404,73
698,00	1404,51
699,00	1434,62
700,00	1411,37
701,00	1422,98
702,00	1412,47
703,00	1411,50
704,00	1418,15
705,00	1410,41
706,00	1407,57
707,00	1402,32
708,00	1408,94
709,00	1408,41
710,00	1401,51
711,00	1416,34
712,00	1411,72
713,00	1411,34
714,00	1412,34
715,00	1408,60
716,00	1409,75
717,00	1409,78
718,00	1402,98
719,00	1410,78
720,00	1415,52
721,00	1415,90
722,00	1412,15
723,00	1420,27
724,00	1408,32
725,00	1412,28
726,00	1409,41
727,00	1403,57
728,00	1413,03
729,00	1429,10
730,00	1408,00
731,00	1406,47
732,00	1410,53
733,00	1401,79
734,00	1418,11
735,00	1402,45
736,00	1403,70
737,00	1402,76
738,00	1411,97
739,00	1412,81
740,00	1408,94
741,00	1413,03
742,00	1425,04
743,00	1405,76
744,00	1411,06
745,00	1402,32
746,00	1409,47
747,00	1411,44
748,00	1418,36
749,00	1418,36
750,00	1414,09
751,00	1412,93
752,00	1415,87
753,00	1415,62
754,00	1412,40
755,00	1420,21
756,00	1406,91
757,00	1413,03
758,00	1417,33
759,00	1408,28
760,00	1415,68
761,00	1401,01
762,00	1411,16
763,00	1420,36
764,00	1411,31
765,00	1417,43
766,00	1410,84
767,00	1401,54
768,00	1407,97
769,00	1408,13
770,00	1416,87
771,00	1416,46
772,00	1413,68
773,00	1423,67
774,00	1416,77
775,00	1421,83
776,00	1419,02
777,00	1420,27
778,00	1419,46
779,00	1422,39
780,00	1420,02
781,00	1422,33
782,00	1431,00
783,00	1420,39
784,00	1432,97
785,00	1437,90
786,00	1418,49
787,00	1424,39
788,00	1431,44
789,00	1423,79
790,00	1425,36
791,00	1426,54
792,00	1416,49
793,00	1425,45
794,00	1426,45
795,00	1421,77
796,00	1429,91
797,00	1427,01
798,00	1431,72
799,00	1430,22
800,00	1435,12
801,00	1439,24
802,00	1465,64
803,00	1448,45
804,00	1443,08
805,00	1443,95
806,00	1449,54
807,00	1451,04
808,00	1454,85
809,00	1456,62
810,00	1459,84
811,00	1463,99
812,00	1475,79
813,00	1476,75
814,00	1494,20
815,00	1494,63
816,00	1513,70
817,00	1525,72
818,00	1530,18
819,00	1542,44
820,00	1551,21
821,00	1577,83
822,00	1582,51
823,00	1591,69
824,00	1611,94
825,00	1624,52
826,00	1652,70
827,00	1674,04
828,00	1698,57
829,00	1746,20
830,00	1787,70
831,00	1861,01
832,00	1927,98
833,00	2022,72
834,00	2195,61
835,00	2552,74
836,00	3184,72
837,00	4076,43
838,00	7137,48
839,00	11389,36
840,00	12238,41
841,00	15389,12
842,00	11399,41
843,00	7534,37
844,00	5267,58
845,00	3961,56
846,00	3061,33
847,00	2526,34
848,00	2228,13
849,00	2061,26
850,00	1957,84
851,00	1863,97
852,00	1791,63
853,00	1764,01
854,00	1732,43
855,00	1690,77
856,00	1661,16
857,00	1645,05
858,00	1617,00
859,00	1605,79
860,00	1584,95
861,00	1571,87
862,00	1551,99
863,00	1542,35
864,00	1548,03
865,00	1535,98
866,00	1539,48
867,00	1517,57
868,00	1509,55
869,00	1506,81
870,00	1489,89
871,00	1496,63
872,00	1480,97
873,00	1477,16
874,00	1463,68
875,00	1460,53
876,00	1457,53
877,00	1448,73
878,00	1450,48
879,00	1452,44
880,00	1446,05
881,00	1446,14
882,00	1452,19
883,00	1441,58
884,00	1438,49
885,00	1435,37
886,00	1448,85
887,00	1444,95
888,00	1436,53
889,00	1437,21
890,00	1440,46
891,00	1446,67
892,00	1434,90
893,00	1428,60
894,00	1425,11
895,00	1426,57
896,00	1428,60
897,00	1417,62
898,00	1429,82
899,00	1421,08
900,00	1425,07
901,00	1424,29
902,00	1419,46
903,00	1426,42
904,00	1415,99
905,00	1419,05
906,00	1425,45
907,00	1423,86
908,00	1417,05
909,00	1412,28
910,00	1412,12
911,00	1412,93
912,00	1414,62
913,00	1417,40
914,00	1415,90
915,00	1419,18
916,00	1418,86
917,00	1414,84
918,00	1416,84
919,00	1403,10
920,00	1407,54
921,00	1412,59
922,00	1422,80
923,00	1418,46
924,00	1411,53
925,00	1413,28
926,00	1414,59
927,00	1417,55
928,00	1415,84
929,00	1416,90
930,00	1413,12
931,00	1421,58
932,00	1410,72
933,00	1421,36
934,00	1411,56
935,00	1424,76
936,00	1413,50
937,00	1409,60
938,00	1412,75
939,00	1421,30
940,00	1406,38
941,00	1409,22
942,00	1415,18
943,00	1410,56
944,00	1426,38
945,00	1422,42
946,00	1410,06
947,00	1417,65
948,00	1417,46
949,00	1420,46
950,00	1426,45
951,00	1419,96
952,00	1409,06
953,00	1407,04
954,00	1415,84
955,00	1410,72
956,00	1402,20
957,00	1412,44
958,00	1413,28
959,00	1420,02
960,00	1410,84
961,00	1425,39
962,00	1417,33
963,00	1422,33
964,00	1433,22
965,00	1418,90
966,00	1420,27
967,00	1418,05
968,00	1419,80
969,00	1437,90
970,00	1432,25
971,00	1433,09
972,00	1425,20
973,00	1424,48
974,00	1413,18
975,00	1413,47
976,00	1416,21
977,00	1421,95
978,00	1426,73
979,00	1423,89
980,00	1417,74
981,00	1422,52
982,00	1417,96
983,00	1416,12
984,00	1421,64
985,00	1415,18
986,00	1425,92
987,00	1433,34
988,00	1436,09
989,00	1432,16
990,00	1424,79
991,00	1432,16
992,00	1433,69
993,00	1426,38
994,00	1429,29
995,00	1435,68
996,00	1431,25
997,00	1440,74
998,00	1438,52
999,00	1458,68
1000,00	1447,95
1001,00	1460,62
1002,00	1454,13
1003,00	1456,28
1004,00	1465,43
1005,00	1457,44
1006,00	1474,10
1007,00	1479,25
1008,00	1483,74
1009,00	1488,27
1010,00	1492,42
1011,00	1504,65
1012,00	1519,10
1013,00	1517,63
1014,00	1541,32
1015,00	1562,26
1016,00	1578,05
1017,00	1587,98
1018,00	1641,50
1019,00	1661,97
1020,00	1702,91
1021,00	1771,19
1022,00	1912,81
1023,00	2126,67
1024,00	2449,73
1025,00	2987,05
1026,00	5027,03
1027,00	9253,01
1028,00	8477,01
1029,00	6084,89
1030,00	4313,30
1031,00	3362,54
1032,00	2771,66
1033,00	2385,97
1034,00	2191,43
1035,00	2166,34
1036,00	2274,35
1037,00	2552,53
1038,00	3083,98
1039,00	5076,43
1040,00	9371,88
1041,00	8590,64
1042,00	6068,42
1043,00	4311,70
1044,00	3353,71
1045,00	2703,16
1046,00	2274,16
1047,00	2006,59
1048,00	1868,78
1049,00	1798,03
1050,00	1729,81
1051,00	1683,09
1052,00	1639,75
1053,00	1612,75
1054,00	1587,07
1055,00	1577,27
1056,00	1558,48
1057,00	1543,38
1058,00	1531,40
1059,00	1525,31
1060,00	1511,42
1061,00	1497,41
1062,00	1490,08
1063,00	1477,07
1064,00	1487,05
1065,00	1471,85
1066,00	1465,74
1067,00	1470,23
1068,00	1466,70
1069,00	1464,77
1070,00	1462,80
1071,00	1458,84
1072,00	1454,35
1073,00	1451,51
1074,00	1443,52
1075,00	1459,90
1076,00	1440,99
1077,00	1433,50
1078,00	1436,09
1079,00	1427,10
1080,00	1449,32
1081,00	1434,90
1082,00	1420,33
1083,00	1444,92
1084,00	1435,03
1085,00	1439,59
1086,00	1435,31
1087,00	1439,68
1088,00	1424,39
1089,00	1431,03
1090,00	1424,45
1091,00	1429,16
1092,00	1433,38
1093,00	1443,99
1094,00	1422,08
1095,00	1427,35
1096,00	1432,97
1097,00	1423,58
1098,00	1419,83
1099,00	1433,75
1100,00	1419,30
1101,00	1426,63
1102,00	1434,44
1103,00	1435,25
1104,00	1433,66
1105,00	1439,18
1106,00	1417,71
1107,00	1424,79
1108,00	1420,92
1109,00	1411,34
1110,00	1415,74
1111,00	1426,01
1112,00	1427,85
1113,00	1417,30
1114,00	1410,16
1115,00	1409,47
1116,00	1425,73
1117,00	1407,10
1118,00	1411,28
1119,00	1410,06
1120,00	1426,45
1121,00	1435,25
1122,00	1414,93
1123,00	1419,08
1124,00	1427,54
1125,00	1406,19
1126,00	1413,37
1127,00	1407,75
1128,00	1428,19
1129,00	1408,35
1130,00	1407,69
1131,00	1414,03
1132,00	1412,22
1133,00	1411,53
1134,00	1421,14
1135,00	1420,64
1136,00	1424,64
1137,00	1417,46
1138,00	1408,72
1139,00	1408,69
1140,00	1414,65
1141,00	1412,15
1142,00	1400,89
1143,00	1412,09
1144,00	1416,80
1145,00	1423,98
1146,00	1405,69
1147,00	1410,31
1148,00	1410,72
1149,00	1407,07
1150,00	1419,71
1151,00	1420,33
1152,00	1414,53
1153,00	1416,30
1154,00	1418,46
1155,00	1414,71
1156,00	1418,93
1157,00	1417,99
1158,00	1417,27
1159,00	1408,41
1160,00	1413,09
1161,00	1409,13
1162,00	1414,53
1163,00	1407,66
1164,00	1406,47
1165,00	1425,76
1166,00	1420,71
1167,00	1410,41
1168,00	1418,96
1169,00	1415,15
1170,00	1413,62
1171,00	1425,20
1172,00	1417,52
1173,00	1409,94
1174,00	1411,81
1175,00	1408,53
1176,00	1415,56
1177,00	1414,15
1178,00	1425,45
1179,00	1414,25
1180,00	1408,85
1181,00	1411,75
1182,00	1411,19
1183,00	1409,19
1184,00	1406,44
1185,00	1415,43
1186,00	1408,13
1187,00	1420,58
1188,00	1420,80
1189,00	1408,07
1190,00	1412,03
1191,00	1419,46
1192,00	1422,89
1193,00	1414,40
1194,00	1414,03
1195,00	1416,55
1196,00	1423,33
1197,00	1412,68
1198,00	1412,06
1199,00	1411,28
1200,00	1406,72
1201,00	1401,04
1202,00	1420,64
1203,00	1419,11
1204,00	1403,63
1205,00	1416,59
1206,00	1407,72
1207,00	1414,87
1208,00	1423,51
1209,00	1410,22
1210,00	1409,72
1211,00	1416,52
1212,00	1415,12
1213,00	1407,82
1214,00	1403,76
1215,00	1412,53
1216,00	1409,35
1217,00	1424,20
1218,00	1418,30
1219,00	1420,02
1220,00	1418,30
1221,00	1422,92
1222,00	1420,86
1223,00	1413,12
1224,00	1413,81
1225,00	1405,69
1226,00	1409,22
1227,00	1410,97
1228,00	1413,59
1229,00	1409,56
1230,00	1412,62
1231,00	1411,72
1232,00	1407,54
1233,00	1406,63
1234,00	1411,00
1235,00	1405,91
1236,00	1408,35
1237,00	1410,34
1238,00	1407,91
1239,00	1416,74
1240,00	1414,06
1241,00	1413,53
1242,00	1409,53
1243,00	1415,06
1244,00	1404,60
1245,00	1407,72
1246,00	1414,71
1247,00	1420,80
1248,00	1415,03
1249,00	1414,65
1250,00	1420,95
1251,00	1426,48
1252,00	1425,98
1253,00	1423,45
1254,00	1417,12
1255,00	1415,81
1256,00	1413,22
1257,00	1415,43
1258,00	1407,38
1259,00	1405,63
1260,00	1418,71
1261,00	1413,96
1262,00	1403,51
1263,00	1403,29
1264,00	1416,30
1265,00	1409,16
1266,00	1428,07
1267,00	1411,62
1268,00	1404,60
1269,00	1409,28
1270,00	1419,36
1271,00	1410,00
1272,00	1404,32
1273,00	1415,87
1274,00	1413,28
1275,00	1410,34
1276,00	1427,35
1277,00	1474,91
1278,00	1421,98
1279,00	1410,47
1280,00	1406,88
1281,00	1405,35
1282,00	1411,87
1283,00	1411,59
1284,00	1407,10
1285,00	1426,45
1286,00	1402,42
1287,00	1414,43
1288,00	1418,18
1289,00	1432,60
1290,00	1413,22
1291,00	1415,74
1292,00	1411,41
1293,00	1406,23
1294,00	1405,38
1295,00	1406,10
1296,00	1419,93
1297,00	1417,02
1298,00	1412,12
1299,00	1403,23
1300,00	1412,37
1301,00	1412,19
1302,00	1415,37
1303,00	1411,69
1304,00	1416,52
1305,00	1417,33
1306,00	1412,22
1307,00	1422,58
1308,00	1413,12
1309,00	1410,44
1310,00	1405,48
1311,00	1412,68
1312,00	1410,47
1313,00	1408,94
1314,00	1404,98
1315,00	1423,55
1316,00	1407,29
1317,00	1405,29
1318,00	1412,22
1319,00	1418,02
1320,00	1419,18
1321,00	1426,57
1322,00	1481,31
1323,00	1441,18
1324,00	1420,02
1325,00	1423,79
1326,00	1416,49
1327,00	1405,16
1328,00	1423,11
1329,00	1417,18
1330,00	1419,61
1331,00	1416,15
1332,00	1407,47
1333,00	1406,54
1334,00	1400,58
1335,00	1413,68
1336,00	1412,84
1337,00	1416,99
1338,00	1407,07
1339,00	1403,73
1340,00	1413,50
1341,00	1410,97
1342,00	1414,62
1343,00	1415,43
1344,00	1411,90
1345,00	1403,39
1346,00	1407,41
1347,00	1412,09
1348,00	1414,28
1349,00	1401,95
1350,00	1424,70
1351,00	1419,86
1352,00	1416,59
1353,00	1403,57
1354,00	1438,31
1355,00	1413,00
1356,00	1401,86
1357,00	1406,60
1358,00	1406,23
1359,00	1416,71
1360,00	1403,79
1361,00	1403,10
1362,00	1403,14
1363,00	1420,67
1364,00	1415,21
1365,00	1416,27
1366,00	1407,38
1367,00	1403,32
1368,00	1404,98
1369,00	1411,84
1370,00	1418,33
1371,00	1406,60
1372,00	1402,76
1373,00	1426,73
1374,00	1409,41
1375,00	1412,15
1376,00	1407,63
1377,00	1421,36
1378,00	1414,65
1379,00	1409,72
1380,00	1429,38
1381,00	1404,01
1382,00	1399,86
1383,00	1428,23
1384,00	1408,91
1385,00	1411,84
1386,00	1419,39
1387,00	1415,09
1388,00	1410,19
1389,00	1414,28
1390,00	1402,11
1391,00	1409,97
1392,00	1425,39
1393,00	1412,34
1394,00	1411,06
1395,00	1401,79
1396,00	1417,27
1397,00	1399,64
1398,00	1430,79
1399,00	1514,39
1400,00	1419,36
1401,00	1417,30
1402,00	1446,45
1403,00	1410,50
1404,00	1405,79
1405,00	1404,88
1406,00	1400,11
1407,00	1412,06
1408,00	1411,97
1409,00	1412,75
1410,00	1408,47
1411,00	1570,62
1412,00	1415,12
1413,00	1405,16
1414,00	1403,42
1415,00	1409,66
1416,00	1413,56
1417,00	1410,09
1418,00	1411,28
1419,00	1412,90
1420,00	1408,07
1421,00	1399,42
1422,00	1406,63
1423,00	1408,75
1424,00	1412,40
1425,00	1400,30
1426,00	1407,85
1427,00	1411,47
1428,00	1404,88
1429,00	1412,97
1430,00	1407,79
1431,00	1403,51
1432,00	1407,75
1433,00	1410,34
1434,00	1414,90
1435,00	1413,34
1436,00	1410,31
1437,00	1420,64
1438,00	1414,40
1439,00	1405,66
1440,00	1415,81
1441,00	1407,19
1442,00	1405,35
1443,00	1410,47
1444,00	1404,38
1445,00	1401,39
1446,00	1412,87
1447,00	1410,78
1448,00	1412,72
1449,00	1406,91
1450,00	1409,88
1451,00	1407,19
1452,00	1416,37
1453,00	1406,82
1454,00	1409,91
1455,00	1410,50
1456,00	1405,91
1457,00	1414,68
1458,00	1412,50
1459,00	1409,35
1460,00	1405,51
1461,00	1411,09
1462,00	1418,02
1463,00	1413,47
1464,00	1403,73
1465,00	1408,75
1466,00	1405,13
1467,00	1414,15
1468,00	1414,68
1469,00	1407,01
1470,00	1411,81
1471,00	1409,13
1472,00	1404,35
1473,00	1407,69
1474,00	1410,28
1475,00	1414,18
1476,00	1428,35
1477,00	1418,65
1478,00	1450,57
1479,00	1420,83
1480,00	1411,75
1481,00	1408,88
1482,00	1415,43
1483,00	1409,50
1484,00	1419,92
1485,00	1413,28
1486,00	1414,37
1487,00	1419,02
1488,00	1411,78
1489,00	1410,03
1490,00	1407,66
1491,00	1409,88
1492,00	1410,03
1493,00	1408,60
1494,00	1399,30
1495,00	1410,75
1496,00	1410,03
1497,00	1412,34
1498,00	1405,82
1499,00	1407,44
1500,00	1411,94
1501,00	1407,19
1502,00	1397,11
1503,00	1426,10
1504,00	1413,62
1505,00	1414,78
1506,00	1406,01
1507,00	1401,98
1508,00	1407,04
1509,00	1411,28
1510,00	1403,60
1511,00	1416,37
1512,00	1402,26
1513,00	1408,35
1514,00	1411,56
1515,00	1415,03
1516,00	1451,26
1517,00	1422,80
1518,00	1411,16
1519,00	1408,88
1520,00	1423,05
1521,00	1403,82
1522,00	1405,16
1523,00	1411,69
1524,00	1406,47
1525,00	1408,47
1526,00	1408,00
1527,00	1406,79
1528,00	1412,50
1529,00	1412,87
1530,00	1412,81
1531,00	1404,88
1532,00	1409,72
1533,00	1404,10
1534,00	1412,65
1535,00	1406,69
1536,00	1405,91
1537,00	1408,85
1538,00	1412,81
1539,00	1418,55
1540,00	1402,57
1541,00	1408,41
1542,00	1405,63
1543,00	1405,01
1544,00	1407,25
1545,00	1411,00
1546,00	1409,00
1547,00	1407,41
1548,00	1407,82
1549,00	1405,13
1550,00	1406,23
1551,00	1403,26
1552,00	1410,56
1553,00	1401,92
1554,00	1402,95
1555,00	1406,23
1556,00	1399,52
1557,00	1415,68
1558,00	1412,72
1559,00	1407,10
1560,00	1407,13
1561,00	1409,00
1562,00	1420,30
1563,00	1410,50
1564,00	1409,28
1565,00	1404,88
1566,00	1409,31
1567,00	1420,24
1568,00	1406,26
1569,00	1410,87
1570,00	1410,31
1571,00	1404,88
1572,00	1407,22
1573,00	1410,75
1574,00	1420,71
1575,00	1401,08
1576,00	1405,01
1577,00	1404,85
1578,00	1415,49
1579,00	1405,79
1580,00	1403,45
1581,00	1406,91
1582,00	1407,50
1583,00	1424,33
1584,00	1411,09
1585,00	1406,01
1586,00	1401,48
1587,00	1413,40
1588,00	1408,94
1589,00	1411,22
1590,00	1401,92
1591,00	1400,92
1592,00	1424,04
1593,00	1409,35
1594,00	1403,48
1595,00	1402,61
1596,00	1405,82
1597,00	1411,03
1598,00	1409,78
1599,00	1407,16
1600,00	1405,69
1601,00	1408,28
1602,00	1419,58
1603,00	1412,12
1604,00	1402,14
1605,00	1418,83
1606,00	1406,60
1607,00	1402,29
1608,00	1406,76
1609,00	1413,40
1610,00	1402,07
1611,00	1413,00
1612,00	1409,28
1613,00	1417,49
1614,00	1405,54
1615,00	1407,04
1616,00	1416,90
1617,00	1409,53
1618,00	1412,47
1619,00	1407,82
1620,00	1414,25
1621,00	1413,12
1622,00	1403,20
1623,00	1418,77
1624,00	1414,21
1625,00	1408,53
1626,00	1419,11
1627,00	1402,20
1628,00	1408,63
1629,00	1453,85
1630,00	1421,14
1631,00	1402,85
1632,00	1402,79
1633,00	1402,85
1634,00	1410,50
1635,00	1410,69
1636,00	1408,13
1637,00	1409,19
1638,00	1398,17
1639,00	1400,64
1640,00	1409,13
1641,00	1412,93
1642,00	1419,86
1643,00	1405,48
1644,00	1425,51
1645,00	1422,76
1646,00	1412,90
1647,00	1414,28
1648,00	1427,17
1649,00	1414,84
1650,00	1424,01
1651,00	1419,39
1652,00	1406,69
1653,00	1398,99
1654,00	1404,73
1655,00	1412,50
1656,00	1405,10
1657,00	1416,49
1658,00	1405,98
1659,00	1412,56
1660,00	1411,97
1661,00	1409,94
1662,00	1405,98
1663,00	1412,03
1664,00	1409,81
1665,00	1407,82
1666,00	1406,35
1667,00	1422,23
1668,00	1410,59
1669,00	1397,46
1670,00	1405,63
1671,00	1400,33
1672,00	1400,92
1673,00	1404,26
1674,00	1414,65
1675,00	1411,00
1676,00	1405,79
1677,00	1415,46
1678,00	1413,53
1679,00	1411,97
1680,00	1410,97
1681,00	1408,88
1682,00	1421,92
1683,00	1413,75
1684,00	1413,12
1685,00	1416,21
1686,00	1402,42
1687,00	1394,02
1688,00	1407,07
1689,00	1402,92
1690,00	1406,44
1691,00	1405,98
1692,00	1406,07
1693,00	1418,40
1694,00	1405,79
1695,00	1407,29
1696,00	1410,59
1697,00	1407,35
1698,00	1395,61
1699,00	1403,26
1700,00	1407,35
1701,00	1416,46
1702,00	1406,85
1703,00	1402,79
1704,00	1405,51
1705,00	1413,56
1706,00	1405,98
1707,00	1403,82
1708,00	1401,54
1709,00	1408,44
1710,00	1408,57
1711,00	1400,36
1712,00	1399,14
1713,00	1421,14
1714,00	1406,88
1715,00	1405,38
1716,00	1416,71
1717,00	1405,54
1718,00	1414,71
1719,00	1412,31
1720,00	1405,66
1721,00	1408,00
1722,00	1406,85
1723,00	1412,34
1724,00	1410,63
1725,00	1402,67
1726,00	1406,47
1727,00	1407,54
1728,00	1418,08
1729,00	1409,41
1730,00	1417,65
1731,00	1407,07
1732,00	1425,64
1733,00	1409,47
1734,00	1404,95
1735,00	1409,22
1736,00	1401,95
1737,00	1404,73
1738,00	1407,69
1739,00	1409,91
1740,00	1417,05
1741,00	1424,08
1742,00	1411,84
1743,00	1398,45
1744,00	1405,44
1745,00	1403,51
1746,00	1409,28
1747,00	1402,89
1748,00	1410,81
1749,00	1415,77
1750,00	1418,08
1751,00	1425,29
1752,00	1405,13
1753,00	1399,30
1754,00	1408,44
1755,00	1406,63
1756,00	1406,85
1757,00	1412,78
1758,00	1397,02
1759,00	1400,51
1760,00	1410,31
1761,00	1415,34
1762,00	1405,88
1763,00	1402,36
1764,00	1412,81
1765,00	1407,16
1766,00	1409,31
1767,00	1405,48
1768,00	1404,23
1769,00	1405,91
1770,00	1410,09
1771,00	1404,98
1772,00	1425,92
1773,00	1395,80
1774,00	1399,27
1775,00	1404,95
1776,00	1413,59
1777,00	1407,72
1778,00	1413,68
1779,00	1423,83
1780,00	1419,55
1781,00	1423,58
1782,00	1432,81
1783,00	1464,71
1784,00	1507,84
1785,00	1488,67
1786,00	1465,24
1787,00	1443,70
1788,00	1434,09
1789,00	1424,51
1790,00	1430,10
1791,00	1408,35
1792,00	1406,60
1793,00	1406,88
1794,00	1407,19
1795,00	1410,53
1796,00	1406,07
1797,00	1400,92
1798,00	1404,45
1799,00	1405,63
1800,00	1414,25
1801,00	1408,19
1802,00	1417,12
1803,00	1405,63
1804,00	1411,56
1805,00	1405,41
1806,00	1407,97
1807,00	1400,36
1808,00	1400,36
1809,00	1405,60
1810,00	1409,47
1811,00	1398,27
1812,00	1406,60
1813,00	1411,44
1814,00	1404,32
1815,00	1413,90
1816,00	1427,82
1817,00	1407,57
1818,00	1441,18
1819,00	1417,62
1820,00	1414,74
1821,00	1413,62
1822,00	1395,52
1823,00	1402,36
1824,00	1404,98
1825,00	1418,96
1826,00	1399,98
1827,00	1416,12
1828,00	1419,89
1829,00	1411,12
1830,00	1411,50
1831,00	1409,35
1832,00	1398,64
1833,00	1403,29
1834,00	1393,18
1835,00	1404,45
1836,00	1403,14
1837,00	1408,16
1838,00	1407,01
1839,00	1418,80
1840,00	1419,77
1841,00	1413,59
1842,00	1404,54
1843,00	1415,71
1844,00	1418,21
1845,00	1411,34
1846,00	1398,86
1847,00	1401,42
1848,00	1406,38
1849,00	1403,92
1850,00	1406,60
1851,00	1409,31
1852,00	1402,51
1853,00	1393,96
1854,00	1404,98
1855,00	1400,61
1856,00	1398,89
1857,00	1406,51
1858,00	1419,08
1859,00	1401,20
1860,00	1401,08
1861,00	1435,56
1862,00	1399,86
1863,00	1405,44
1864,00	1403,01
1865,00	1406,69
1866,00	1406,72
1867,00	1401,61
1868,00	1415,12
1869,00	1399,14
1870,00	1399,52
1871,00	1408,97
1872,00	1404,63
1873,00	1412,37
1874,00	1407,47
1875,00	1407,25
1876,00	1404,17
1877,00	1408,66
1878,00	1411,22
1879,00	1407,44
1880,00	1410,41
1881,00	1399,98
1882,00	1402,14
1883,00	1402,39
1884,00	1404,54
1885,00	1407,44
1886,00	1409,75
1887,00	1400,26
1888,00	1398,58
1889,00	1403,04
1890,00	1405,51
1891,00	1412,12
1892,00	1409,13
1893,00	1408,50
1894,00	1402,45
1895,00	1405,94
1896,00	1418,18
1897,00	1419,99
1898,00	1406,47
1899,00	1406,19
1900,00	1405,98
1901,00	1404,57
1902,00	1410,06
1903,00	1425,54
1904,00	1404,32
1905,00	1440,74
1906,00	1403,39
1907,00	1409,72
1908,00	1437,15
1909,00	1407,50
1910,00	1408,16
1911,00	1413,00
1912,00	1418,65
1913,00	1432,72
1914,00	1408,16
1915,00	1407,97
1916,00	1412,97
1917,00	1405,73
1918,00	1413,15
1919,00	1408,28
1920,00	1406,04
1921,00	1420,58
1922,00	1410,31
1923,00	1405,32
1924,00	1407,44
1925,00	1410,22
1926,00	1408,66
1927,00	1410,13
1928,00	1414,84
1929,00	1412,34
1930,00	1400,83
1931,00	1408,41
1932,00	1419,89
1933,00	1402,42
1934,00	1403,67
1935,00	1404,76
1936,00	1412,00
1937,00	1399,42
1938,00	1405,63
1939,00	1405,73
1940,00	1417,46
1941,00	1408,28
1942,00	1406,41
1943,00	1398,74
1944,00	1408,69
1945,00	1397,05
1946,00	1396,64
1947,00	1400,70
1948,00	1417,27
1949,00	1402,64
1950,00	1408,69
1951,00	1403,85
1952,00	1399,33
1953,00	1400,58
1954,00	1408,88
1955,00	1396,55
1956,00	1398,17
1957,00	1403,92
1958,00	1404,79
1959,00	1409,60
1960,00	1397,67
1961,00	1409,56
1962,00	1398,17
1963,00	1412,75
1964,00	1397,02
1965,00	1407,63
1966,00	1400,98
1967,00	1409,41
1968,00	1400,89
1969,00	1398,08
1970,00	1406,69
1971,00	1405,54
1972,00	1402,23
1973,00	1405,51
1974,00	1401,29
1975,00	1409,75
1976,00	1406,60
1977,00	1417,62
1978,00	1405,44
1979,00	1401,58
1980,00	1439,24
1981,00	1412,09
1982,00	1397,46
1983,00	1406,13
1984,00	1407,32
1985,00	1409,06
1986,00	1401,01
1987,00	1403,10
1988,00	1404,29
1989,00	1414,06
1990,00	1412,59
1991,00	1405,63
1992,00	1410,34
1993,00	1428,19
1994,00	1410,28
1995,00	1400,14
1996,00	1406,60
1997,00	1402,20
1998,00	1407,69
1999,00	1400,45
2000,00	1406,10
2001,00	1406,94
2002,00	1415,37
2003,00	1402,11
2004,00	1410,09
2005,00	1396,61
2006,00	1415,34
2007,00	1398,64
2008,00	1401,86
2009,00	1416,40
2010,00	1405,66
2011,00	1400,58
2012,00	1395,52
2013,00	1400,98
2014,00	1398,83
2015,00	1400,23
2016,00	1404,51
2017,00	1400,11
2018,00	1408,38
2019,00	1402,07
2020,00	1404,20
2021,00	1406,97
2022,00	1398,24
2023,00	1408,69
2024,00	1402,23
2025,00	1408,44
2026,00	1400,39
2027,00	1399,17
2028,00	1406,04
2029,00	1403,73
2030,00	1406,82
2031,00	1398,14
2032,00	1397,64
2033,00	1406,69
2034,00	1415,84
2035,00	1403,79
2036,00	1400,95
2037,00	1401,11
2038,00	1402,98
2039,00	1402,26
2040,00	1404,60
2041,00	1402,17
2042,00	1401,17
2043,00	1402,26
2044,00	1411,06
2045,00	1406,82
2046,00	1406,82
2047,00	1406,82
>>>>>End Processed Spectral Data<<<<<
