SpectraSuite Datei
++++++++++++++++++++++++++++++++++++
Datum: Wed Sep 18 15:38:17 CEST 2024
Benutzer: Student
Dark-Spektrum vorhanden: Nein
Referenz-Spektrum vorhanden: Nein
Zahl der probierten Teilspektren: 1
Spektrometer: USB2+H15728
Integrationszeit (usec): 1000 (USB2+H15728)
Spektren Durchschnitt berechnet: 75 (USB2+H15728)
Boxcar Glättung: 0 (USB2+H15728)
Dunkelstromkorrektur: Nein (USB2+H15728)
Puls/Lampe aktiviert: Nein (USB2+H15728)
Correct for Detector Non-linearity: Nein (USB2+H15728)
Streulichtkorrektur: Nein (USB2+H15728)
Anzahl Pixel in verarbeitetem Spektrum: 2048
>>>>>Begin Processed Spectral Data<<<<<
0,00	926,51
1,00	926,51
2,00	926,51
3,00	896,33
4,00	888,09
5,00	896,05
6,00	893,83
7,00	898,39
8,00	902,85
9,00	925,10
10,00	929,01
11,00	944,42
12,00	967,83
13,00	977,16
14,00	998,22
15,00	1015,45
16,00	1035,17
17,00	1052,15
18,00	1063,20
19,00	1083,70
20,00	1090,16
21,00	1109,23
22,00	1127,39
23,00	1137,00
24,00	1148,86
25,00	1161,44
26,00	1176,82
27,00	1186,71
28,00	1190,93
29,00	1199,76
30,00	1212,30
31,00	1222,54
32,00	1228,97
33,00	1233,37
34,00	1237,55
35,00	1235,43
36,00	1234,68
37,00	1249,94
38,00	1251,91
39,00	1248,22
40,00	1250,16
41,00	1246,01
42,00	1248,79
43,00	1240,92
44,00	1244,07
45,00	1245,10
46,00	1251,25
47,00	1244,35
48,00	1243,85
49,00	1246,26
50,00	1247,85
51,00	1250,94
52,00	1236,15
53,00	1240,61
54,00	1233,21
55,00	1233,68
56,00	1223,73
57,00	1224,97
58,00	1224,23
59,00	1216,39
60,00	1226,10
61,00	1223,54
62,00	1225,91
63,00	1225,60
64,00	1215,14
65,00	1211,21
66,00	1212,93
67,00	1220,01
68,00	1215,99
69,00	1211,43
70,00	1216,55
71,00	1209,84
72,00	1221,07
73,00	1210,65
74,00	1216,20
75,00	1212,55
76,00	1212,71
77,00	1209,34
78,00	1214,49
79,00	1219,86
80,00	1214,39
81,00	1215,71
82,00	1221,35
83,00	1213,77
84,00	1208,65
85,00	1220,32
86,00	1215,92
87,00	1217,39
88,00	1216,20
89,00	1220,73
90,00	1217,08
91,00	1224,32
92,00	1215,61
93,00	1223,29
94,00	1222,26
95,00	1214,96
96,00	1225,01
97,00	1222,38
98,00	1219,98
99,00	1214,86
100,00	1222,98
101,00	1222,88
102,00	1223,04
103,00	1218,95
104,00	1219,51
105,00	1229,37
106,00	1223,48
107,00	1221,39
108,00	1225,57
109,00	1228,78
110,00	1229,47
111,00	1230,00
112,00	1229,78
113,00	1228,09
114,00	1227,06
115,00	1220,48
116,00	1227,03
117,00	1228,59
118,00	1222,20
119,00	1228,13
120,00	1234,06
121,00	1229,22
122,00	1222,60
123,00	1228,75
124,00	1229,53
125,00	1226,10
126,00	1235,83
127,00	1231,34
128,00	1225,57
129,00	1229,03
130,00	1234,71
131,00	1225,50
132,00	1228,22
133,00	1242,54
134,00	1222,17
135,00	1224,94
136,00	1227,35
137,00	1219,86
138,00	1224,51
139,00	1231,06
140,00	1225,69
141,00	1235,68
142,00	1225,07
143,00	1223,85
144,00	1225,57
145,00	1220,42
146,00	1228,28
147,00	1228,75
148,00	1225,16
149,00	1225,97
150,00	1230,22
151,00	1225,63
152,00	1226,69
153,00	1226,35
154,00	1231,00
155,00	1229,66
156,00	1231,56
157,00	1228,63
158,00	1227,85
159,00	1229,78
160,00	1233,52
161,00	1234,99
162,00	1227,47
163,00	1231,81
164,00	1239,24
165,00	1233,15
166,00	1233,06
167,00	1231,75
168,00	1236,55
169,00	1238,39
170,00	1227,28
171,00	1235,83
172,00	1239,20
173,00	1223,79
174,00	1227,66
175,00	1227,66
176,00	1236,15
177,00	1234,40
178,00	1231,78
179,00	1232,43
180,00	1229,78
181,00	1233,46
182,00	1237,39
183,00	1230,00
184,00	1234,27
185,00	1228,94
186,00	1229,62
187,00	1229,22
188,00	1232,74
189,00	1232,96
190,00	1236,15
191,00	1235,21
192,00	1237,33
193,00	1238,14
194,00	1228,41
195,00	1225,32
196,00	1235,49
197,00	1234,84
198,00	1235,71
199,00	1233,62
200,00	1233,03
201,00	1236,86
202,00	1236,68
203,00	1235,24
204,00	1243,82
205,00	1232,90
206,00	1233,40
207,00	1238,39
208,00	1237,36
209,00	1232,56
210,00	1229,53
211,00	1232,59
212,00	1231,37
213,00	1229,90
214,00	1237,96
215,00	1230,84
216,00	1238,36
217,00	1229,62
218,00	1241,45
219,00	1240,20
220,00	1233,71
221,00	1227,56
222,00	1237,33
223,00	1234,80
224,00	1231,18
225,00	1233,09
226,00	1243,76
227,00	1241,51
228,00	1241,14
229,00	1235,30
230,00	1238,11
231,00	1233,71
232,00	1231,34
233,00	1235,55
234,00	1231,59
235,00	1234,40
236,00	1241,67
237,00	1242,01
238,00	1244,88
239,00	1242,29
240,00	1233,03
241,00	1237,49
242,00	1240,76
243,00	1242,73
244,00	1239,67
245,00	1232,62
246,00	1233,62
247,00	1240,11
248,00	1237,71
249,00	1235,99
250,00	1235,65
251,00	1236,27
252,00	1232,06
253,00	1238,11
254,00	1234,65
255,00	1235,77
256,00	1240,39
257,00	1229,87
258,00	1230,81
259,00	1238,02
260,00	1237,80
261,00	1235,71
262,00	1236,05
263,00	1240,08
264,00	1245,29
265,00	1239,73
266,00	1236,93
267,00	1239,49
268,00	1235,68
269,00	1239,73
270,00	1234,43
271,00	1240,83
272,00	1234,96
273,00	1233,31
274,00	1237,33
275,00	1241,26
276,00	1243,11
277,00	1241,33
278,00	1238,55
279,00	1238,49
280,00	1243,54
281,00	1238,33
282,00	1238,33
283,00	1241,70
284,00	1236,65
285,00	1237,30
286,00	1238,05
287,00	1239,33
288,00	1237,71
289,00	1239,61
290,00	1243,82
291,00	1242,23
292,00	1243,54
293,00	1237,55
294,00	1238,14
295,00	1240,14
296,00	1243,11
297,00	1239,02
298,00	1242,04
299,00	1246,32
300,00	1248,00
301,00	1239,86
302,00	1234,30
303,00	1236,08
304,00	1235,49
305,00	1239,95
306,00	1238,95
307,00	1238,36
308,00	1244,23
309,00	1238,02
310,00	1237,68
311,00	1240,23
312,00	1242,82
313,00	1239,89
314,00	1239,11
315,00	1240,55
316,00	1239,08
317,00	1238,52
318,00	1249,28
319,00	1239,20
320,00	1246,60
321,00	1237,43
322,00	1240,11
323,00	1244,70
324,00	1243,48
325,00	1243,67
326,00	1243,64
327,00	1237,71
328,00	1236,52
329,00	1244,42
330,00	1242,33
331,00	1239,11
332,00	1239,92
333,00	1240,17
334,00	1241,95
335,00	1241,61
336,00	1233,56
337,00	1240,76
338,00	1240,83
339,00	1241,64
340,00	1244,17
341,00	1236,27
342,00	1242,29
343,00	1242,79
344,00	1241,61
345,00	1246,16
346,00	1244,14
347,00	1237,83
348,00	1247,85
349,00	1248,35
350,00	1240,58
351,00	1239,33
352,00	1236,52
353,00	1237,83
354,00	1241,33
355,00	1240,76
356,00	1246,48
357,00	1243,57
358,00	1242,36
359,00	1232,65
360,00	1239,89
361,00	1243,04
362,00	1240,73
363,00	1238,92
364,00	1252,72
365,00	1242,33
366,00	1245,29
367,00	1245,16
368,00	1252,03
369,00	1244,14
370,00	1242,20
371,00	1240,95
372,00	1242,17
373,00	1240,58
374,00	1237,64
375,00	1243,26
376,00	1241,89
377,00	1245,01
378,00	1240,95
379,00	1247,88
380,00	1241,73
381,00	1241,39
382,00	1248,16
383,00	1243,20
384,00	1241,70
385,00	1246,54
386,00	1239,39
387,00	1235,96
388,00	1241,67
389,00	1242,26
390,00	1241,26
391,00	1240,02
392,00	1248,79
393,00	1240,58
394,00	1243,89
395,00	1239,67
396,00	1245,73
397,00	1240,76
398,00	1246,48
399,00	1246,94
400,00	1244,20
401,00	1247,69
402,00	1236,36
403,00	1239,52
404,00	1240,30
405,00	1248,85
406,00	1244,01
407,00	1250,60
408,00	1238,80
409,00	1240,39
410,00	1249,91
411,00	1244,67
412,00	1237,74
413,00	1241,51
414,00	1248,16
415,00	1249,38
416,00	1250,88
417,00	1245,32
418,00	1247,07
419,00	1243,76
420,00	1248,60
421,00	1245,26
422,00	1252,37
423,00	1244,20
424,00	1239,52
425,00	1245,16
426,00	1244,85
427,00	1241,01
428,00	1239,95
429,00	1245,76
430,00	1241,98
431,00	1243,92
432,00	1248,69
433,00	1239,33
434,00	1240,67
435,00	1245,07
436,00	1244,26
437,00	1246,32
438,00	1244,42
439,00	1242,86
440,00	1239,61
441,00	1244,51
442,00	1232,87
443,00	1250,81
444,00	1243,98
445,00	1246,07
446,00	1239,52
447,00	1249,19
448,00	1243,98
449,00	1241,17
450,00	1238,86
451,00	1248,16
452,00	1245,07
453,00	1250,41
454,00	1251,56
455,00	1251,34
456,00	1244,45
457,00	1239,64
458,00	1239,83
459,00	1242,01
460,00	1245,48
461,00	1242,14
462,00	1238,99
463,00	1248,72
464,00	1246,73
465,00	1249,91
466,00	1250,00
467,00	1240,30
468,00	1244,26
469,00	1250,81
470,00	1247,01
471,00	1248,72
472,00	1243,11
473,00	1248,32
474,00	1249,47
475,00	1245,01
476,00	1249,19
477,00	1244,38
478,00	1247,47
479,00	1242,23
480,00	1243,64
481,00	1241,45
482,00	1244,23
483,00	1250,44
484,00	1247,44
485,00	1246,10
486,00	1238,71
487,00	1243,42
488,00	1246,73
489,00	1245,85
490,00	1244,32
491,00	1242,73
492,00	1243,11
493,00	1246,16
494,00	1240,20
495,00	1243,17
496,00	1243,73
497,00	1249,35
498,00	1249,81
499,00	1243,26
500,00	1241,36
501,00	1243,60
502,00	1250,72
503,00	1243,76
504,00	1241,36
505,00	1246,19
506,00	1239,20
507,00	1250,75
508,00	1243,04
509,00	1251,41
510,00	1245,95
511,00	1247,19
512,00	1247,44
513,00	1249,28
514,00	1242,36
515,00	1241,23
516,00	1246,19
517,00	1253,72
518,00	1250,66
519,00	1243,67
520,00	1240,17
521,00	1246,82
522,00	1248,85
523,00	1243,48
524,00	1247,07
525,00	1244,42
526,00	1245,85
527,00	1253,06
528,00	1249,72
529,00	1244,04
530,00	1250,72
531,00	1255,49
532,00	1244,73
533,00	1239,92
534,00	1239,05
535,00	1244,14
536,00	1245,91
537,00	1246,66
538,00	1243,45
539,00	1252,03
540,00	1241,11
541,00	1242,08
542,00	1248,82
543,00	1242,11
544,00	1249,07
545,00	1251,31
546,00	1256,37
547,00	1246,54
548,00	1243,98
549,00	1247,47
550,00	1244,70
551,00	1243,48
552,00	1249,94
553,00	1244,01
554,00	1254,50
555,00	1241,92
556,00	1252,53
557,00	1253,65
558,00	1244,60
559,00	1249,85
560,00	1256,71
561,00	1263,11
562,00	1260,11
563,00	1275,62
564,00	1256,31
565,00	1246,13
566,00	1248,85
567,00	1237,43
568,00	1244,32
569,00	1238,77
570,00	1246,60
571,00	1242,79
572,00	1247,47
573,00	1246,69
574,00	1246,73
575,00	1247,44
576,00	1244,88
577,00	1243,39
578,00	1246,38
579,00	1240,27
580,00	1246,60
581,00	1244,45
582,00	1243,67
583,00	1240,95
584,00	1249,75
585,00	1243,73
586,00	1244,20
587,00	1253,84
588,00	1245,29
589,00	1248,04
590,00	1247,88
591,00	1251,50
592,00	1243,60
593,00	1239,45
594,00	1249,32
595,00	1245,35
596,00	1247,82
597,00	1250,06
598,00	1244,54
599,00	1244,26
600,00	1247,79
601,00	1249,47
602,00	1248,38
603,00	1250,47
604,00	1247,13
605,00	1247,35
606,00	1249,00
607,00	1243,14
608,00	1248,04
609,00	1250,84
610,00	1241,20
611,00	1248,38
612,00	1243,20
613,00	1251,16
614,00	1245,01
615,00	1245,35
616,00	1240,20
617,00	1241,26
618,00	1245,95
619,00	1246,54
620,00	1252,72
621,00	1242,29
622,00	1242,76
623,00	1250,88
624,00	1246,57
625,00	1243,39
626,00	1243,23
627,00	1251,13
628,00	1248,07
629,00	1248,91
630,00	1243,92
631,00	1249,32
632,00	1242,01
633,00	1252,94
634,00	1237,49
635,00	1248,16
636,00	1244,07
637,00	1247,76
638,00	1244,17
639,00	1251,91
640,00	1250,56
641,00	1252,84
642,00	1242,57
643,00	1247,19
644,00	1245,01
645,00	1253,93
646,00	1238,67
647,00	1247,51
648,00	1245,79
649,00	1249,38
650,00	1241,20
651,00	1252,03
652,00	1245,73
653,00	1239,92
654,00	1248,35
655,00	1243,57
656,00	1245,23
657,00	1253,68
658,00	1250,84
659,00	1252,87
660,00	1250,22
661,00	1257,93
662,00	1249,66
663,00	1254,90
664,00	1245,41
665,00	1251,34
666,00	1252,12
667,00	1241,26
668,00	1243,73
669,00	1244,76
670,00	1248,10
671,00	1248,63
672,00	1244,73
673,00	1240,92
674,00	1245,85
675,00	1245,60
676,00	1243,64
677,00	1254,37
678,00	1246,85
679,00	1250,97
680,00	1246,10
681,00	1250,69
682,00	1249,35
683,00	1242,36
684,00	1246,57
685,00	1244,38
686,00	1248,00
687,00	1245,51
688,00	1258,24
689,00	1245,82
690,00	1244,79
691,00	1248,91
692,00	1250,28
693,00	1246,88
694,00	1249,94
695,00	1250,31
696,00	1246,19
697,00	1248,07
698,00	1247,79
699,00	1248,19
700,00	1246,01
701,00	1249,97
702,00	1247,26
703,00	1247,69
704,00	1244,48
705,00	1249,38
706,00	1248,85
707,00	1247,47
708,00	1250,41
709,00	1245,32
710,00	1242,45
711,00	1249,85
712,00	1246,98
713,00	1248,91
714,00	1256,56
715,00	1247,38
716,00	1240,17
717,00	1244,79
718,00	1255,18
719,00	1248,22
720,00	1244,54
721,00	1246,57
722,00	1248,97
723,00	1252,69
724,00	1246,57
725,00	1247,82
726,00	1248,07
727,00	1257,59
728,00	1248,41
729,00	1249,07
730,00	1247,97
731,00	1243,26
732,00	1248,07
733,00	1244,67
734,00	1246,35
735,00	1248,69
736,00	1246,19
737,00	1240,58
738,00	1246,98
739,00	1239,39
740,00	1245,16
741,00	1248,25
742,00	1248,97
743,00	1252,22
744,00	1245,32
745,00	1249,16
746,00	1245,85
747,00	1250,31
748,00	1250,84
749,00	1251,59
750,00	1246,38
751,00	1243,48
752,00	1250,69
753,00	1250,31
754,00	1248,82
755,00	1249,13
756,00	1252,37
757,00	1247,47
758,00	1245,23
759,00	1250,13
760,00	1247,32
761,00	1253,87
762,00	1244,45
763,00	1248,22
764,00	1248,66
765,00	1242,20
766,00	1248,19
767,00	1241,92
768,00	1244,92
769,00	1250,19
770,00	1245,82
771,00	1246,48
772,00	1244,01
773,00	1252,53
774,00	1250,60
775,00	1246,82
776,00	1241,01
777,00	1243,89
778,00	1245,79
779,00	1249,13
780,00	1250,25
781,00	1250,06
782,00	1250,50
783,00	1242,48
784,00	1246,57
785,00	1246,32
786,00	1245,48
787,00	1245,23
788,00	1253,81
789,00	1247,85
790,00	1248,29
791,00	1250,28
792,00	1247,07
793,00	1248,38
794,00	1255,18
795,00	1252,81
796,00	1250,60
797,00	1245,48
798,00	1248,57
799,00	1241,11
800,00	1248,75
801,00	1247,16
802,00	1247,57
803,00	1248,88
804,00	1237,02
805,00	1244,73
806,00	1243,60
807,00	1246,16
808,00	1248,63
809,00	1248,22
810,00	1250,25
811,00	1251,72
812,00	1251,91
813,00	1249,81
814,00	1248,32
815,00	1251,97
816,00	1242,14
817,00	1245,20
818,00	1243,01
819,00	1253,19
820,00	1247,38
821,00	1245,79
822,00	1253,90
823,00	1249,44
824,00	1244,32
825,00	1246,44
826,00	1245,88
827,00	1247,88
828,00	1250,88
829,00	1246,19
830,00	1242,48
831,00	1249,88
832,00	1251,62
833,00	1248,97
834,00	1252,75
835,00	1247,72
836,00	1247,69
837,00	1241,42
838,00	1250,50
839,00	1244,01
840,00	1247,63
841,00	1251,28
842,00	1251,75
843,00	1250,53
844,00	1250,63
845,00	1243,11
846,00	1245,10
847,00	1247,16
848,00	1252,19
849,00	1242,17
850,00	1239,08
851,00	1249,28
852,00	1247,69
853,00	1248,50
854,00	1247,85
855,00	1246,04
856,00	1253,28
857,00	1251,16
858,00	1252,47
859,00	1247,79
860,00	1247,82
861,00	1253,43
862,00	1251,03
863,00	1249,88
864,00	1250,56
865,00	1243,14
866,00	1241,79
867,00	1245,45
868,00	1244,98
869,00	1255,43
870,00	1246,94
871,00	1242,17
872,00	1253,59
873,00	1245,54
874,00	1245,57
875,00	1242,26
876,00	1244,85
877,00	1253,97
878,00	1254,96
879,00	1254,40
880,00	1247,19
881,00	1250,35
882,00	1242,11
883,00	1249,57
884,00	1247,41
885,00	1243,82
886,00	1244,35
887,00	1253,31
888,00	1249,97
889,00	1249,41
890,00	1253,65
891,00	1245,85
892,00	1247,13
893,00	1245,91
894,00	1253,22
895,00	1249,38
896,00	1246,98
897,00	1250,38
898,00	1251,44
899,00	1255,68
900,00	1256,71
901,00	1249,47
902,00	1248,13
903,00	1251,91
904,00	1255,06
905,00	1247,63
906,00	1250,50
907,00	1248,07
908,00	1260,55
909,00	1243,48
910,00	1254,12
911,00	1240,36
912,00	1255,28
913,00	1253,40
914,00	1256,52
915,00	1253,50
916,00	1239,95
917,00	1245,88
918,00	1249,38
919,00	1247,32
920,00	1247,51
921,00	1250,75
922,00	1245,29
923,00	1250,19
924,00	1250,78
925,00	1244,60
926,00	1246,76
927,00	1251,34
928,00	1262,30
929,00	1253,19
930,00	1251,97
931,00	1247,32
932,00	1242,23
933,00	1248,54
934,00	1249,35
935,00	1257,87
936,00	1249,69
937,00	1246,73
938,00	1245,07
939,00	1242,67
940,00	1249,50
941,00	1247,72
942,00	1248,75
943,00	1252,59
944,00	1252,81
945,00	1252,65
946,00	1246,60
947,00	1251,28
948,00	1249,22
949,00	1255,78
950,00	1247,79
951,00	1250,60
952,00	1249,38
953,00	1251,47
954,00	1249,66
955,00	1250,19
956,00	1253,78
957,00	1252,09
958,00	1256,81
959,00	1249,60
960,00	1247,32
961,00	1251,94
962,00	1250,38
963,00	1254,15
964,00	1256,71
965,00	1254,93
966,00	1250,00
967,00	1245,35
968,00	1250,41
969,00	1261,36
970,00	1249,91
971,00	1254,53
972,00	1252,56
973,00	1260,27
974,00	1329,24
975,00	1420,24
976,00	1340,88
977,00	1359,23
978,00	1572,65
979,00	1477,13
980,00	1341,35
981,00	1291,57
982,00	1271,07
983,00	1259,58
984,00	1252,34
985,00	1250,84
986,00	1256,46
987,00	1252,47
988,00	1253,53
989,00	1253,28
990,00	1251,31
991,00	1248,41
992,00	1255,34
993,00	1258,93
994,00	1259,18
995,00	1252,53
996,00	1250,53
997,00	1246,85
998,00	1255,18
999,00	1257,77
1000,00	1251,97
1001,00	1248,38
1002,00	1259,55
1003,00	1251,34
1004,00	1253,81
1005,00	1258,90
1006,00	1259,55
1007,00	1256,68
1008,00	1249,38
1009,00	1258,21
1010,00	1252,09
1011,00	1255,12
1012,00	1260,52
1013,00	1250,63
1014,00	1256,31
1015,00	1254,84
1016,00	1262,14
1017,00	1255,90
1018,00	1254,62
1019,00	1255,62
1020,00	1263,83
1021,00	1254,84
1022,00	1260,02
1023,00	1267,48
1024,00	1264,01
1025,00	1262,55
1026,00	1265,70
1027,00	1259,93
1028,00	1269,19
1029,00	1275,00
1030,00	1269,26
1031,00	1267,85
1032,00	1269,41
1033,00	1262,33
1034,00	1270,79
1035,00	1263,05
1036,00	1271,35
1037,00	1262,86
1038,00	1272,13
1039,00	1266,10
1040,00	1257,71
1041,00	1264,45
1042,00	1257,30
1043,00	1254,09
1044,00	1268,07
1045,00	1263,05
1046,00	1264,58
1047,00	1267,26
1048,00	1265,92
1049,00	1260,96
1050,00	1264,36
1051,00	1260,30
1052,00	1266,82
1053,00	1264,45
1054,00	1267,57
1055,00	1280,37
1056,00	1271,07
1057,00	1269,69
1058,00	1263,64
1059,00	1266,29
1060,00	1272,75
1061,00	1277,71
1062,00	1275,69
1063,00	1271,29
1064,00	1277,81
1065,00	1285,17
1066,00	1278,62
1067,00	1282,02
1068,00	1294,69
1069,00	1289,42
1070,00	1287,11
1071,00	1290,42
1072,00	1292,51
1073,00	1291,38
1074,00	1300,34
1075,00	1302,84
1076,00	1308,11
1077,00	1313,45
1078,00	1316,75
1079,00	1318,16
1080,00	1320,81
1081,00	1328,39
1082,00	1332,14
1083,00	1339,66
1084,00	1389,65
1085,00	1407,25
1086,00	1403,26
1087,00	1470,89
1088,00	1481,81
1089,00	1456,50
1090,00	1474,48
1091,00	1516,11
1092,00	1485,74
1093,00	1490,27
1094,00	1518,17
1095,00	1549,81
1096,00	1628,39
1097,00	1719,23
1098,00	1858,51
1099,00	2085,48
1100,00	2903,89
1101,00	10704,33
1102,00	59119,53
1103,00	65394,88
1104,00	49114,64
1105,00	36258,89
1106,00	64789,90
1107,00	64805,94
1108,00	33481,21
1109,00	15907,34
1110,00	8602,31
1111,00	4917,59
1112,00	3021,73
1113,00	2159,53
1114,00	1821,78
1115,00	1649,92
1116,00	1538,17
1117,00	1488,77
1118,00	1455,59
1119,00	1433,94
1120,00	1425,60
1121,00	1395,99
1122,00	1384,85
1123,00	1386,19
1124,00	1371,15
1125,00	1360,73
1126,00	1356,20
1127,00	1349,05
1128,00	1343,90
1129,00	1332,64
1130,00	1325,62
1131,00	1317,13
1132,00	1314,26
1133,00	1316,88
1134,00	1307,77
1135,00	1309,05
1136,00	1306,55
1137,00	1305,80
1138,00	1301,65
1139,00	1298,37
1140,00	1293,19
1141,00	1287,04
1142,00	1288,32
1143,00	1289,45
1144,00	1290,42
1145,00	1284,77
1146,00	1280,99
1147,00	1286,95
1148,00	1279,27
1149,00	1284,42
1150,00	1275,62
1151,00	1275,40
1152,00	1272,50
1153,00	1269,82
1154,00	1277,18
1155,00	1275,84
1156,00	1269,23
1157,00	1261,74
1158,00	1267,98
1159,00	1275,56
1160,00	1268,23
1161,00	1271,16
1162,00	1259,93
1163,00	1260,74
1164,00	1261,11
1165,00	1257,34
1166,00	1261,77
1167,00	1259,83
1168,00	1263,33
1169,00	1257,37
1170,00	1257,24
1171,00	1253,90
1172,00	1255,53
1173,00	1261,61
1174,00	1255,84
1175,00	1257,02
1176,00	1260,89
1177,00	1255,59
1178,00	1258,18
1179,00	1260,58
1180,00	1265,86
1181,00	1263,98
1182,00	1258,65
1183,00	1254,84
1184,00	1256,43
1185,00	1257,59
1186,00	1250,88
1187,00	1251,16
1188,00	1264,79
1189,00	1257,43
1190,00	1257,30
1191,00	1260,86
1192,00	1273,94
1193,00	1261,21
1194,00	1257,68
1195,00	1254,15
1196,00	1254,03
1197,00	1245,35
1198,00	1256,93
1199,00	1259,55
1200,00	1262,33
1201,00	1254,87
1202,00	1244,42
1203,00	1257,46
1204,00	1256,81
1205,00	1249,13
1206,00	1253,68
1207,00	1256,71
1208,00	1246,94
1209,00	1245,63
1210,00	1258,12
1211,00	1253,03
1212,00	1250,94
1213,00	1254,06
1214,00	1249,53
1215,00	1254,06
1216,00	1260,08
1217,00	1246,23
1218,00	1256,77
1219,00	1255,31
1220,00	1243,20
1221,00	1248,94
1222,00	1256,06
1223,00	1257,90
1224,00	1252,19
1225,00	1246,73
1226,00	1252,31
1227,00	1256,65
1228,00	1248,82
1229,00	1247,66
1230,00	1250,50
1231,00	1249,72
1232,00	1249,50
1233,00	1250,25
1234,00	1252,53
1235,00	1250,22
1236,00	1252,31
1237,00	1250,47
1238,00	1240,64
1239,00	1249,03
1240,00	1252,09
1241,00	1249,13
1242,00	1249,69
1243,00	1253,06
1244,00	1253,90
1245,00	1250,72
1246,00	1243,92
1247,00	1246,51
1248,00	1252,37
1249,00	1251,50
1250,00	1250,88
1251,00	1246,66
1252,00	1247,01
1253,00	1253,81
1254,00	1253,56
1255,00	1255,15
1256,00	1247,57
1257,00	1248,29
1258,00	1246,38
1259,00	1248,85
1260,00	1245,10
1261,00	1248,35
1262,00	1250,28
1263,00	1255,71
1264,00	1249,66
1265,00	1252,72
1266,00	1250,56
1267,00	1246,85
1268,00	1250,28
1269,00	1261,67
1270,00	1270,29
1271,00	1265,89
1272,00	1260,64
1273,00	1268,94
1274,00	1293,35
1275,00	1293,04
1276,00	1274,03
1277,00	1262,61
1278,00	1255,65
1279,00	1252,00
1280,00	1256,24
1281,00	1241,42
1282,00	1255,00
1283,00	1247,57
1284,00	1245,91
1285,00	1246,41
1286,00	1243,26
1287,00	1248,50
1288,00	1248,82
1289,00	1250,35
1290,00	1243,82
1291,00	1243,20
1292,00	1249,50
1293,00	1242,01
1294,00	1247,76
1295,00	1244,01
1296,00	1248,19
1297,00	1246,69
1298,00	1248,32
1299,00	1244,32
1300,00	1248,75
1301,00	1249,97
1302,00	1244,82
1303,00	1248,44
1304,00	1250,03
1305,00	1249,85
1306,00	1244,57
1307,00	1251,25
1308,00	1253,15
1309,00	1250,56
1310,00	1253,50
1311,00	1250,35
1312,00	1254,40
1313,00	1246,38
1314,00	1247,97
1315,00	1243,67
1316,00	1250,38
1317,00	1245,54
1318,00	1253,43
1319,00	1251,44
1320,00	1250,03
1321,00	1245,26
1322,00	1249,47
1323,00	1247,10
1324,00	1249,10
1325,00	1255,99
1326,00	1250,53
1327,00	1240,39
1328,00	1246,76
1329,00	1248,94
1330,00	1241,76
1331,00	1246,23
1332,00	1254,50
1333,00	1246,60
1334,00	1246,16
1335,00	1248,19
1336,00	1250,97
1337,00	1249,53
1338,00	1244,14
1339,00	1242,42
1340,00	1246,48
1341,00	1251,25
1342,00	1251,31
1343,00	1250,44
1344,00	1258,12
1345,00	1246,94
1346,00	1249,72
1347,00	1245,51
1348,00	1247,97
1349,00	1241,61
1350,00	1250,22
1351,00	1253,47
1352,00	1252,81
1353,00	1258,90
1354,00	1245,20
1355,00	1248,19
1356,00	1253,87
1357,00	1255,24
1358,00	1251,03
1359,00	1252,28
1360,00	1246,38
1361,00	1245,17
1362,00	1251,00
1363,00	1244,70
1364,00	1252,53
1365,00	1246,29
1366,00	1249,66
1367,00	1250,00
1368,00	1248,44
1369,00	1244,92
1370,00	1245,17
1371,00	1249,16
1372,00	1248,54
1373,00	1240,36
1374,00	1251,13
1375,00	1248,63
1376,00	1244,98
1377,00	1246,66
1378,00	1246,88
1379,00	1246,23
1380,00	1245,66
1381,00	1249,13
1382,00	1246,94
1383,00	1245,98
1384,00	1246,04
1385,00	1246,32
1386,00	1243,39
1387,00	1251,78
1388,00	1247,32
1389,00	1244,63
1390,00	1246,48
1391,00	1250,10
1392,00	1254,50
1393,00	1246,16
1394,00	1249,07
1395,00	1246,32
1396,00	1242,29
1397,00	1243,73
1398,00	1250,41
1399,00	1250,47
1400,00	1242,23
1401,00	1246,44
1402,00	1252,16
1403,00	1248,22
1404,00	1243,70
1405,00	1251,41
1406,00	1243,29
1407,00	1247,60
1408,00	1240,20
1409,00	1247,91
1410,00	1250,31
1411,00	1247,13
1412,00	1247,13
1413,00	1246,88
1414,00	1248,72
1415,00	1247,26
1416,00	1252,81
1417,00	1249,41
1418,00	1244,67
1419,00	1240,76
1420,00	1254,53
1421,00	1247,97
1422,00	1248,54
1423,00	1247,82
1424,00	1250,03
1425,00	1250,60
1426,00	1249,44
1427,00	1253,62
1428,00	1253,65
1429,00	1245,10
1430,00	1242,82
1431,00	1246,16
1432,00	1245,66
1433,00	1249,28
1434,00	1247,01
1435,00	1250,94
1436,00	1246,76
1437,00	1248,16
1438,00	1252,50
1439,00	1247,07
1440,00	1247,10
1441,00	1250,16
1442,00	1258,27
1443,00	1251,16
1444,00	1250,56
1445,00	1244,70
1446,00	1244,76
1447,00	1254,53
1448,00	1242,51
1449,00	1244,45
1450,00	1246,60
1451,00	1247,79
1452,00	1248,50
1453,00	1241,14
1454,00	1247,91
1455,00	1243,07
1456,00	1251,25
1457,00	1251,62
1458,00	1252,50
1459,00	1249,22
1460,00	1242,57
1461,00	1245,48
1462,00	1246,76
1463,00	1246,13
1464,00	1240,58
1465,00	1251,75
1466,00	1249,25
1467,00	1242,01
1468,00	1248,57
1469,00	1245,10
1470,00	1254,87
1471,00	1249,25
1472,00	1252,62
1473,00	1259,05
1474,00	1252,81
1475,00	1245,41
1476,00	1247,29
1477,00	1249,66
1478,00	1245,79
1479,00	1246,16
1480,00	1243,89
1481,00	1243,45
1482,00	1250,13
1483,00	1243,89
1484,00	1243,32
1485,00	1248,50
1486,00	1243,85
1487,00	1243,73
1488,00	1245,04
1489,00	1247,91
1490,00	1247,79
1491,00	1241,45
1492,00	1246,88
1493,00	1254,90
1494,00	1245,95
1495,00	1248,07
1496,00	1244,76
1497,00	1245,48
1498,00	1249,50
1499,00	1249,16
1500,00	1247,97
1501,00	1248,16
1502,00	1250,78
1503,00	1248,50
1504,00	1248,82
1505,00	1246,69
1506,00	1242,14
1507,00	1244,17
1508,00	1240,95
1509,00	1246,44
1510,00	1252,81
1511,00	1245,88
1512,00	1244,85
1513,00	1250,91
1514,00	1248,22
1515,00	1246,60
1516,00	1249,32
1517,00	1250,60
1518,00	1248,57
1519,00	1249,28
1520,00	1253,09
1521,00	1248,72
1522,00	1252,81
1523,00	1244,60
1524,00	1245,20
1525,00	1244,88
1526,00	1245,66
1527,00	1232,21
1528,00	1250,03
1529,00	1248,41
1530,00	1249,78
1531,00	1239,24
1532,00	1249,97
1533,00	1254,62
1534,00	1243,64
1535,00	1246,98
1536,00	1243,17
1537,00	1245,85
1538,00	1251,38
1539,00	1246,51
1540,00	1244,60
1541,00	1247,54
1542,00	1250,25
1543,00	1251,06
1544,00	1254,22
1545,00	1253,97
1546,00	1250,25
1547,00	1246,41
1548,00	1249,66
1549,00	1250,84
1550,00	1246,85
1551,00	1244,88
1552,00	1244,51
1553,00	1248,54
1554,00	1248,50
1555,00	1250,60
1556,00	1256,96
1557,00	1246,98
1558,00	1248,10
1559,00	1240,17
1560,00	1251,47
1561,00	1246,07
1562,00	1244,85
1563,00	1249,22
1564,00	1247,66
1565,00	1248,07
1566,00	1247,69
1567,00	1246,29
1568,00	1247,22
1569,00	1252,00
1570,00	1247,16
1571,00	1244,95
1572,00	1246,13
1573,00	1251,66
1574,00	1251,62
1575,00	1248,72
1576,00	1248,32
1577,00	1247,07
1578,00	1251,94
1579,00	1242,61
1580,00	1242,98
1581,00	1254,22
1582,00	1249,35
1583,00	1244,38
1584,00	1245,13
1585,00	1244,07
1586,00	1240,92
1587,00	1249,57
1588,00	1241,17
1589,00	1251,22
1590,00	1246,44
1591,00	1244,07
1592,00	1246,79
1593,00	1241,64
1594,00	1243,89
1595,00	1251,72
1596,00	1251,78
1597,00	1250,69
1598,00	1250,10
1599,00	1244,14
1600,00	1241,54
1601,00	1245,57
1602,00	1252,03
1603,00	1242,51
1604,00	1242,48
1605,00	1248,04
1606,00	1250,66
1607,00	1243,67
1608,00	1243,35
1609,00	1249,16
1610,00	1240,52
1611,00	1247,94
1612,00	1241,89
1613,00	1251,47
1614,00	1242,70
1615,00	1248,54
1616,00	1249,94
1617,00	1253,65
1618,00	1246,01
1619,00	1243,95
1620,00	1251,44
1621,00	1243,51
1622,00	1250,10
1623,00	1243,35
1624,00	1252,09
1625,00	1248,04
1626,00	1246,98
1627,00	1238,42
1628,00	1245,20
1629,00	1252,19
1630,00	1245,82
1631,00	1245,32
1632,00	1245,04
1633,00	1253,12
1634,00	1247,22
1635,00	1247,01
1636,00	1244,38
1637,00	1242,51
1638,00	1242,79
1639,00	1242,89
1640,00	1239,52
1641,00	1250,16
1642,00	1253,84
1643,00	1249,00
1644,00	1252,50
1645,00	1246,73
1646,00	1249,41
1647,00	1247,54
1648,00	1248,69
1649,00	1247,13
1650,00	1250,63
1651,00	1236,93
1652,00	1243,23
1653,00	1250,69
1654,00	1238,64
1655,00	1254,12
1656,00	1245,88
1657,00	1239,70
1658,00	1236,80
1659,00	1244,82
1660,00	1246,04
1661,00	1252,81
1662,00	1244,57
1663,00	1242,17
1664,00	1253,03
1665,00	1250,75
1666,00	1248,47
1667,00	1249,07
1668,00	1244,88
1669,00	1252,34
1670,00	1247,54
1671,00	1253,06
1672,00	1255,03
1673,00	1249,63
1674,00	1246,19
1675,00	1246,44
1676,00	1242,76
1677,00	1255,81
1678,00	1247,44
1679,00	1243,70
1680,00	1249,00
1681,00	1244,88
1682,00	1243,26
1683,00	1244,82
1684,00	1250,94
1685,00	1239,17
1686,00	1247,88
1687,00	1248,57
1688,00	1245,73
1689,00	1247,29
1690,00	1248,10
1691,00	1248,97
1692,00	1250,06
1693,00	1250,47
1694,00	1244,10
1695,00	1241,92
1696,00	1250,38
1697,00	1248,88
1698,00	1250,31
1699,00	1248,50
1700,00	1245,26
1701,00	1250,56
1702,00	1249,25
1703,00	1251,44
1704,00	1245,16
1705,00	1245,35
1706,00	1245,32
1707,00	1248,35
1708,00	1240,80
1709,00	1238,95
1710,00	1242,86
1711,00	1252,31
1712,00	1244,63
1713,00	1241,26
1714,00	1246,91
1715,00	1240,02
1716,00	1242,51
1717,00	1246,48
1718,00	1253,06
1719,00	1249,88
1720,00	1247,44
1721,00	1249,57
1722,00	1260,21
1723,00	1248,25
1724,00	1245,32
1725,00	1252,22
1726,00	1245,57
1727,00	1241,73
1728,00	1242,11
1729,00	1246,88
1730,00	1249,94
1731,00	1244,01
1732,00	1240,02
1733,00	1249,53
1734,00	1242,70
1735,00	1250,60
1736,00	1239,33
1737,00	1245,76
1738,00	1246,91
1739,00	1245,54
1740,00	1249,32
1741,00	1245,48
1742,00	1242,20
1743,00	1252,84
1744,00	1250,22
1745,00	1242,26
1746,00	1252,09
1747,00	1244,60
1748,00	1242,89
1749,00	1241,92
1750,00	1244,14
1751,00	1248,16
1752,00	1248,79
1753,00	1249,60
1754,00	1248,19
1755,00	1255,74
1756,00	1250,31
1757,00	1256,03
1758,00	1250,03
1759,00	1240,76
1760,00	1248,19
1761,00	1244,07
1762,00	1248,63
1763,00	1254,12
1764,00	1254,12
1765,00	1252,44
1766,00	1239,17
1767,00	1245,73
1768,00	1250,28
1769,00	1244,82
1770,00	1241,48
1771,00	1244,95
1772,00	1237,99
1773,00	1246,51
1774,00	1245,29
1775,00	1243,64
1776,00	1245,04
1777,00	1240,23
1778,00	1239,70
1779,00	1243,98
1780,00	1249,66
1781,00	1249,35
1782,00	1244,92
1783,00	1249,41
1784,00	1252,47
1785,00	1249,00
1786,00	1250,44
1787,00	1252,78
1788,00	1251,34
1789,00	1249,13
1790,00	1251,87
1791,00	1247,13
1792,00	1247,07
1793,00	1249,10
1794,00	1255,06
1795,00	1253,03
1796,00	1247,26
1797,00	1248,94
1798,00	1250,56
1799,00	1247,51
1800,00	1244,70
1801,00	1252,09
1802,00	1250,35
1803,00	1245,98
1804,00	1249,19
1805,00	1257,68
1806,00	1249,25
1807,00	1246,79
1808,00	1246,38
1809,00	1248,79
1810,00	1251,22
1811,00	1242,67
1812,00	1249,63
1813,00	1242,61
1814,00	1245,70
1815,00	1243,98
1816,00	1248,60
1817,00	1249,03
1818,00	1245,88
1819,00	1252,31
1820,00	1253,56
1821,00	1267,07
1822,00	1356,26
1823,00	1444,42
1824,00	1473,10
1825,00	1491,20
1826,00	1416,71
1827,00	1336,35
1828,00	1301,21
1829,00	1281,90
1830,00	1266,17
1831,00	1255,43
1832,00	1252,37
1833,00	1246,69
1834,00	1250,78
1835,00	1247,01
1836,00	1247,54
1837,00	1242,92
1838,00	1247,57
1839,00	1247,44
1840,00	1252,06
1841,00	1252,00
1842,00	1254,34
1843,00	1250,35
1844,00	1249,07
1845,00	1250,47
1846,00	1242,39
1847,00	1243,07
1848,00	1252,03
1849,00	1243,14
1850,00	1251,69
1851,00	1243,79
1852,00	1244,10
1853,00	1245,73
1854,00	1245,29
1855,00	1246,69
1856,00	1247,47
1857,00	1239,33
1858,00	1239,80
1859,00	1247,41
1860,00	1243,76
1861,00	1243,82
1862,00	1245,07
1863,00	1246,44
1864,00	1237,83
1865,00	1240,98
1866,00	1249,35
1867,00	1252,53
1868,00	1246,35
1869,00	1248,47
1870,00	1242,45
1871,00	1250,00
1872,00	1246,13
1873,00	1245,79
1874,00	1246,88
1875,00	1240,61
1876,00	1242,08
1877,00	1246,44
1878,00	1244,95
1879,00	1242,20
1880,00	1246,26
1881,00	1244,57
1882,00	1238,64
1883,00	1242,64
1884,00	1240,20
1885,00	1247,97
1886,00	1248,82
1887,00	1244,48
1888,00	1250,47
1889,00	1244,04
1890,00	1240,36
1891,00	1255,15
1892,00	1246,01
1893,00	1246,13
1894,00	1246,60
1895,00	1254,34
1896,00	1271,63
1897,00	1335,14
1898,00	1356,98
1899,00	1376,17
1900,00	1369,43
1901,00	1319,75
1902,00	1284,27
1903,00	1272,60
1904,00	1259,58
1905,00	1255,49
1906,00	1258,43
1907,00	1256,40
1908,00	1251,75
1909,00	1243,95
1910,00	1241,54
1911,00	1246,23
1912,00	1236,05
1913,00	1249,19
1914,00	1240,42
1915,00	1248,25
1916,00	1248,75
1917,00	1244,42
1918,00	1244,07
1919,00	1248,72
1920,00	1250,50
1921,00	1250,88
1922,00	1250,44
1923,00	1247,82
1924,00	1243,45
1925,00	1245,79
1926,00	1238,83
1927,00	1244,60
1928,00	1248,85
1929,00	1248,16
1930,00	1242,86
1931,00	1247,97
1932,00	1252,75
1933,00	1245,29
1934,00	1241,20
1935,00	1238,21
1936,00	1242,23
1937,00	1247,57
1938,00	1250,94
1939,00	1243,79
1940,00	1246,13
1941,00	1248,13
1942,00	1248,85
1943,00	1240,02
1944,00	1244,57
1945,00	1243,70
1946,00	1248,10
1947,00	1245,10
1948,00	1243,64
1949,00	1248,13
1950,00	1245,70
1951,00	1245,79
1952,00	1241,67
1953,00	1244,23
1954,00	1241,54
1955,00	1243,60
1956,00	1252,41
1957,00	1256,24
1958,00	1259,02
1959,00	1259,80
1960,00	1250,53
1961,00	1243,67
1962,00	1247,79
1963,00	1249,72
1964,00	1250,13
1965,00	1248,50
1966,00	1250,78
1967,00	1245,91
1968,00	1243,64
1969,00	1246,16
1970,00	1249,13
1971,00	1251,34
1972,00	1248,82
1973,00	1240,20
1974,00	1239,77
1975,00	1247,94
1976,00	1252,06
1977,00	1251,50
1978,00	1247,32
1979,00	1245,91
1980,00	1251,09
1981,00	1250,38
1982,00	1251,34
1983,00	1249,75
1984,00	1247,22
1985,00	1244,92
1986,00	1248,75
1987,00	1247,76
1988,00	1243,54
1989,00	1250,22
1990,00	1249,94
1991,00	1248,32
1992,00	1245,66
1993,00	1245,63
1994,00	1254,75
1995,00	1252,12
1996,00	1246,26
1997,00	1247,44
1998,00	1246,13
1999,00	1241,76
2000,00	1251,75
2001,00	1241,95
2002,00	1247,66
2003,00	1241,23
2004,00	1251,72
2005,00	1245,82
2006,00	1247,82
2007,00	1238,77
2008,00	1249,69
2009,00	1244,29
2010,00	1249,88
2011,00	1242,33
2012,00	1249,66
2013,00	1245,07
2014,00	1246,60
2015,00	1248,60
2016,00	1242,14
2017,00	1240,27
2018,00	1242,95
2019,00	1247,38
2020,00	1250,63
2021,00	1249,78
2022,00	1242,20
2023,00	1247,72
2024,00	1251,19
2025,00	1245,70
2026,00	1242,42
2027,00	1246,23
2028,00	1243,26
2029,00	1244,38
2030,00	1240,52
2031,00	1243,76
2032,00	1243,60
2033,00	1244,60
2034,00	1252,44
2035,00	1250,78
2036,00	1250,25
2037,00	1253,03
2038,00	1248,94
2039,00	1247,91
2040,00	1244,17
2041,00	1248,79
2042,00	1241,14
2043,00	1244,98
2044,00	1243,07
2045,00	1240,14
2046,00	1240,14
2047,00	1240,14
>>>>>End Processed Spectral Data<<<<<
